Data from 2937883_Reflection_3.txt Node
Date: Wed Jul 15 14:40:15 EDT 2015
User: robert
Spectrometer: USB4E03001
Autoset integration time: false
Trigger mode: 4
Integration Time (sec): 1.000000E-1
Scans to average: 10
Electric dark correction enabled: true
Nonlinearity correction enabled: false
Boxcar width: 5
Stray light correction enabled: false
XAxis mode: Wavelengths
Stop averaging: false
Number of Pixels in Spectrum: 3648
>>>>>Begin Spectral Data<<<<<
177.566	7.2
177.785	-23.59
178.005	22.2
178.225	39.2
178.445	-122.64
178.665	-40.81
178.885	-117.47
179.105	57.07
179.324	69.03
179.544	22.96
179.764	72.83
179.984	40.02
180.204	2.85
180.423	28.69
180.643	-82.92
180.863	314.92
181.083	97.89
181.302	134.93
181.522	150.64
181.742	132.55
181.961	43.75
182.181	129.09
182.401	69.71
182.621	69.84
182.84	45.14
183.06	-25.91
183.279	-4.75
183.499	-36.97
183.719	-1.5
183.938	-61.24
184.158	-71.54
184.377	-1588.89
184.597	-20.34
184.816	16.56
185.036	43.26
185.256	22.2
185.475	55.03
185.695	33.79
185.914	-322.12
186.134	134.51
186.353	87.83
186.572	70.73
186.792	353.17
187.011	193.82
187.231	164.52
187.45	100.5
187.67	63.06
187.889	211.7
188.108	184.82
188.328	-335.99
188.547	-904.96
188.766	-632.76
188.986	285.31
189.205	235.04
189.424	118.13
189.644	183.13
189.863	1138.54
190.082	565.81
190.302	260.07
190.521	281.02
190.74	448.83
190.959	-39144.44
191.178	911.83
191.398	-94.33
191.617	-8.01
191.836	-6.82
192.055	42.85
192.274	45.23
192.494	69.21
192.713	-44.17
192.932	108.21
193.151	275.32
193.37	-27.43
193.589	-3.71
193.808	-101.63
194.027	-266.85
194.246	-279.15
194.465	2649.24
194.685	1001.58
194.904	4249.46
195.123	702.99
195.342	1239.53
195.561	336.97
195.78	223.63
195.999	240.15
196.218	248
196.436	399.18
196.655	190.89
196.874	167.85
197.093	437.73
197.312	-179.46
197.531	-94.99
197.75	-218.83
197.969	-366.29
198.188	-383.46
198.407	-209.54
198.625	-92.3
198.844	-89.07
199.063	-97.37
199.282	-104.03
199.501	-158.96
199.719	-226.43
199.938	-118.88
200.157	-215.55
200.376	-111.84
200.594	-165.55
200.813	-468.68
201.032	-751.48
201.251	355.57
201.469	275.67
201.688	395.08
201.907	197.53
202.125	222.88
202.344	201.36
202.563	540.48
202.781	190.56
203	124.77
203.218	111.19
203.437	122.17
203.656	121.23
203.874	82.87
204.093	53.89
204.311	10.2
204.53	25.82
204.748	-68.05
204.967	-27.08
205.185	-33.56
205.404	-64.91
205.622	51.27
205.841	-7.36
206.059	17.77
206.278	122.07
206.496	187.83
206.715	298.93
206.933	157.82
207.151	-676.77
207.37	-629.72
207.588	3740.82
207.806	1084.84
208.025	-158.56
208.243	-418.72
208.461	-177.36
208.68	-120.95
208.898	20.87
209.116	60.48
209.335	27.37
209.553	-332.93
209.771	-175.5
209.989	355.15
210.208	577.78
210.426	-102.99
210.644	-135.49
210.862	89.81
211.081	54.06
211.299	183.1
211.517	147.38
211.735	255.54
211.953	-129.07
212.171	-423.23
212.39	-17828.57
212.608	-277.68
212.826	-181.1
213.044	-121.58
213.262	-163.5
213.48	-78.31
213.698	-31.65
213.916	-42.64
214.134	-462.99
214.352	-1240.05
214.57	-107.25
214.788	-15.9
215.006	-12.32
215.224	-17.95
215.442	-188.02
215.66	127.09
215.878	503.66
216.096	-1448.19
216.314	337.98
216.532	293.19
216.75	184.77
216.968	102.74
217.185	79.94
217.403	79.15
217.621	70.97
217.839	87.72
218.057	81.39
218.275	90.11
218.492	43.31
218.71	-7.13
218.928	-404.62
219.146	272.52
219.363	-164.97
219.581	138.05
219.799	121.06
220.017	9.68
220.234	21.62
220.452	-19.85
220.67	7.77
220.887	50.31
221.105	69.29
221.323	58.88
221.54	52.07
221.758	45.73
221.976	50.1
222.193	57.58
222.411	29.45
222.629	36.34
222.846	50.74
223.064	54.01
223.281	37.09
223.499	42.76
223.716	38.68
223.934	52.68
224.151	68.26
224.369	73.45
224.586	50.39
224.804	95.8
225.021	97.86
225.239	66.9
225.456	54.59
225.674	64.14
225.891	42.14
226.108	47.03
226.326	39.28
226.543	23.86
226.76	22.76
226.978	22.26
227.195	17.53
227.413	1.75
227.63	10.38
227.847	14.65
228.064	10.12
228.282	14.65
228.499	15.02
228.716	13.71
228.934	12.81
229.151	13.05
229.368	12.43
229.585	11.89
229.802	13.76
230.02	14.98
230.237	12.23
230.454	12.84
230.671	10.2
230.888	11.36
231.105	8.99
231.323	13.14
231.54	14.16
231.757	18.92
231.974	19.63
232.191	25.44
232.408	25.25
232.625	31.47
232.842	41.1
233.059	43.41
233.276	39.79
233.493	43.65
233.71	42.21
233.927	40.74
234.144	38.72
234.361	35.98
234.578	26.15
234.795	18.93
235.012	21.31
235.229	14.36
235.446	13.66
235.663	13.32
235.879	2.17
236.096	6.8
236.313	-1.79
236.53	-11.23
236.747	-10.08
236.964	-2.86
237.181	12.49
237.397	7.47
237.614	2.33
237.831	-2.24
238.048	3.3
238.264	8.89
238.481	12.07
238.698	14.74
238.915	13.03
239.131	15.77
239.348	14.04
239.565	7.62
239.781	3.74
239.998	8.48
240.215	12.65
240.431	3.52
240.648	3.32
240.865	0.66
241.081	2.3
241.298	4.38
241.514	3.33
241.731	2.3
241.947	3.97
242.164	5.55
242.38	0.65
242.597	-2.9
242.814	-2.66
243.03	0.24
243.246	0.96
243.463	1.13
243.679	0.27
243.896	-1.16
244.112	0.05
244.329	1.86
244.545	2.16
244.762	4.91
244.978	5.18
245.194	8.43
245.411	7.27
245.627	5.7
245.843	6.8
246.06	7.59
246.276	7.49
246.492	6.78
246.709	6.09
246.925	7.35
247.141	7.2
247.357	8.97
247.574	9.67
247.79	8.12
248.006	8.24
248.222	8.86
248.439	8.07
248.655	7.74
248.871	7.62
249.087	7.37
249.303	6.46
249.519	8.18
249.736	6.7
249.952	7.01
250.168	11.34
250.384	12.41
250.6	12.38
250.816	10.46
251.032	11.4
251.248	10.48
251.464	9.91
251.68	7.98
251.896	7.02
252.112	7.92
252.328	6.15
252.544	3.89
252.76	3.23
252.976	0.65
253.192	0.88
253.408	-0.24
253.624	3.58
253.84	3.54
254.056	1.99
254.272	3.04
254.487	1.83
254.703	0.99
254.919	-0.36
255.135	0.95
255.351	2.5
255.567	8
255.782	10.31
255.998	10.92
256.214	12.53
256.43	13.39
256.646	12.14
256.861	12.8
257.077	12.09
257.293	10.17
257.508	13.51
257.724	14.62
257.94	11.74
258.155	11.13
258.371	9.47
258.587	8.74
258.802	8.49
259.018	7.75
259.234	6.91
259.449	6.92
259.665	7.87
259.88	6.41
260.096	6.4
260.312	6.23
260.527	6.98
260.743	6.86
260.958	6.76
261.174	6.37
261.389	7.07
261.605	7.23
261.82	8.31
262.036	8.53
262.251	9.91
262.466	9.91
262.682	10.07
262.897	10.04
263.113	6.92
263.328	7.76
263.543	8.6
263.759	6.21
263.974	6.48
264.189	4.81
264.405	5.7
264.62	6.28
264.835	4.3
265.051	4.53
265.266	6.42
265.481	11.32
265.696	10.61
265.912	10.48
266.127	11.68
266.342	11.4
266.557	9.19
266.773	5.85
266.988	4.95
267.203	6.24
267.418	7.79
267.633	5.87
267.848	2.76
268.064	1.21
268.279	1.67
268.494	1.48
268.709	0.16
268.924	4
269.139	6.33
269.354	5.02
269.569	4.42
269.784	2.93
269.999	2.43
270.214	4.51
270.429	5.83
270.644	6.13
270.859	7.67
271.074	6.78
271.289	4.26
271.504	5.38
271.719	6.47
271.934	6.68
272.149	5.3
272.363	6.7
272.578	6.11
272.793	6.6
273.008	8.05
273.223	6.82
273.438	8.66
273.653	9.97
273.867	8.27
274.082	9.4
274.297	10.04
274.512	12.45
274.726	12.22
274.941	14.42
275.156	13.44
275.371	12.45
275.585	11.31
275.8	10.2
276.015	10.26
276.229	9.25
276.444	9.35
276.659	8.16
276.873	9
277.088	8.48
277.302	4.4
277.517	6.94
277.732	7.41
277.946	7.11
278.161	8.42
278.375	9.36
278.59	9.06
278.804	5.29
279.019	5.34
279.233	2.73
279.448	2.2
279.662	3.39
279.877	0.89
280.091	-0.03
280.306	2.06
280.52	1.29
280.735	0.06
280.949	2.04
281.163	4.91
281.378	5.45
281.592	5.63
281.806	5.12
282.021	6.87
282.235	7.43
282.449	5.93
282.664	4.93
282.878	6.39
283.092	6.14
283.307	6.52
283.521	4.71
283.735	3.65
283.949	4.72
284.164	5.52
284.378	4.36
284.592	2.82
284.806	3.2
285.02	4.03
285.234	3.1
285.449	4.01
285.663	4.36
285.877	6.07
286.091	4.99
286.305	3.9
286.519	3.65
286.733	2.84
286.947	2.73
287.161	3.72
287.375	3.51
287.589	3.96
287.803	2.29
288.017	0.78
288.231	-0.62
288.445	1.02
288.659	2.44
288.873	1.42
289.087	4.21
289.301	5.76
289.515	3.35
289.729	4.56
289.943	5.41
290.157	6.28
290.371	8.67
290.584	9.36
290.798	9.65
291.012	9.86
291.226	11.26
291.44	10.4
291.654	9.62
291.867	10.89
292.081	8.69
292.295	7.88
292.509	7.96
292.722	5.15
292.936	6.21
293.15	7.13
293.364	5.7
293.577	5.24
293.791	4.69
294.005	4.53
294.218	5.68
294.432	7.3
294.645	8.66
294.859	10.56
295.073	10.45
295.286	10.47
295.5	7.96
295.713	10.41
295.927	10.71
296.14	11.68
296.354	11.76
296.568	12.03
296.781	12.23
296.994	10.28
297.208	8.12
297.421	8.31
297.635	7.64
297.848	8.25
298.062	5.96
298.275	4.74
298.489	4.67
298.702	4.8
298.915	5.18
299.129	6.15
299.342	6.26
299.555	7.23
299.769	7.65
299.982	7.25
300.195	8.02
300.409	8.99
300.622	11.19
300.835	11.01
301.048	11.57
301.262	12.12
301.475	11.59
301.688	13.01
301.901	14.66
302.115	16.32
302.328	17.07
302.541	17.57
302.754	17.93
302.967	16.28
303.18	14.58
303.393	15.07
303.607	12.56
303.82	13.43
304.033	13.2
304.246	10.94
304.459	9.14
304.672	8.76
304.885	8.39
305.098	7.71
305.311	9.66
305.524	11.46
305.737	12.8
305.95	14.12
306.163	15.03
306.376	16.58
306.589	16.93
306.802	17.39
307.015	17.21
307.228	17.2
307.44	19.37
307.653	19.82
307.866	19.84
308.079	17.9
308.292	17.73
308.505	14.67
308.718	12
308.93	12.77
309.143	14.18
309.356	14.01
309.569	16.28
309.781	14.31
309.994	13.68
310.207	15.07
310.42	14.3
310.632	14.67
310.845	14.65
311.058	15.61
311.27	14.36
311.483	14.23
311.696	14.84
311.908	13.34
312.121	14.05
312.333	13.59
312.546	13.13
312.759	13.95
312.971	12.83
313.184	14.18
313.396	12.8
313.609	14.31
313.821	13.08
314.034	13.16
314.246	13.16
314.459	14.14
314.671	16.46
314.884	15.94
315.096	17.55
315.309	18.79
315.521	16.64
315.733	16.96
315.946	15.91
316.158	16.2
316.371	15.71
316.583	16
316.795	14.02
317.008	12.83
317.22	12.93
317.432	10.79
317.644	10.32
317.857	14.27
318.069	15.01
318.281	14.65
318.494	15.52
318.706	16
318.918	17.92
319.13	18.76
319.342	17.75
319.555	17.07
319.767	17.01
319.979	18.45
320.191	16.53
320.403	19.78
320.615	21.38
320.827	20.58
321.039	20.74
321.252	20.11
321.464	21.54
321.676	22.47
321.888	22.43
322.1	24.21
322.312	24.27
322.524	24.57
322.736	22.87
322.948	25.03
323.16	24.73
323.372	26.05
323.584	24.77
323.796	22.5
324.007	22.53
324.219	21.4
324.431	21.12
324.643	20.24
324.855	18.82
325.067	19.7
325.279	17.29
325.491	17.36
325.702	15.16
325.914	16.18
326.126	18.63
326.338	19.43
326.55	21.38
326.761	20.85
326.973	20.81
327.185	22.52
327.396	20.42
327.608	19.81
327.82	21.85
328.032	24.31
328.243	26.21
328.455	25.71
328.666	25.39
328.878	25.76
329.09	27.73
329.301	30.05
329.513	30.54
329.725	31.54
329.936	33.19
330.148	31.94
330.359	33.41
330.571	32.65
330.782	32.63
330.994	32.21
331.205	31.56
331.417	32.13
331.628	30.74
331.84	30.81
332.051	31.67
332.262	32.65
332.474	34.17
332.685	32.77
332.897	33.05
333.108	33.67
333.319	35.08
333.531	38.21
333.742	37.44
333.953	38.38
334.165	39.61
334.376	40.87
334.587	40.28
334.799	41.03
335.01	39.97
335.221	39.19
335.432	38.89
335.644	39.55
335.855	37.99
336.066	39.3
336.277	40.19
336.488	38.53
336.7	37.37
336.911	39.32
337.122	39.4
337.333	41.52
337.544	41.56
337.755	42.58
337.966	42.05
338.177	42.48
338.388	42.35
338.599	42.26
338.811	43.53
339.022	44.33
339.233	42.94
339.444	42.37
339.655	40.59
339.866	42.23
340.076	42.72
340.287	43.77
340.498	45.28
340.709	43.93
340.92	43.86
341.131	45.35
341.342	45.52
341.553	46.93
341.764	47.05
341.975	47.19
342.185	46.83
342.396	45.81
342.607	44.62
342.818	43.35
343.029	45.86
343.239	46.38
343.45	45.49
343.661	45.95
343.872	44.91
344.082	43.99
344.293	45.47
344.504	44.64
344.714	45.1
344.925	45.72
345.136	45.87
345.346	44.39
345.557	43.63
345.768	44.39
345.978	44.17
346.189	44.49
346.399	45.68
346.61	45.27
346.821	46.61
347.031	46.46
347.242	46.83
347.452	46.75
347.663	46.94
347.873	47.95
348.084	46.19
348.294	46.95
348.504	47.85
348.715	46.91
348.925	47.01
349.136	48.2
349.346	47.78
349.557	46.61
349.767	46.89
349.977	47.25
350.188	47.35
350.398	48.85
350.608	47.45
350.819	46.09
351.029	46.35
351.239	45.92
351.449	44.37
351.66	45.6
351.87	46.21
352.08	47.47
352.29	47.12
352.501	47.79
352.711	46.92
352.921	47.36
353.131	47.8
353.341	48.14
353.552	47.79
353.762	47.73
353.972	47.43
354.182	49.08
354.392	48.06
354.602	47.87
354.812	46.61
355.022	47.85
355.232	48.1
355.442	48.69
355.652	49.09
355.862	49.45
356.072	50.24
356.282	50.58
356.492	49.4
356.702	49.35
356.912	49.84
357.122	49.66
357.332	48.94
357.542	49.31
357.752	48.14
357.962	48.08
358.171	48.07
358.381	46.54
358.591	46.45
358.801	46.63
359.011	46.42
359.221	46.91
359.43	46.39
359.64	46.78
359.85	46.92
360.06	46.84
360.269	47.57
360.479	47.8
360.689	49.02
360.899	49.09
361.108	49.32
361.318	49.24
361.528	49.09
361.737	49.77
361.947	49.98
362.156	49.99
362.366	50.42
362.576	50.03
362.785	50.25
362.995	49.16
363.204	48.68
363.414	48.29
363.623	48.86
363.833	48.28
364.042	47.77
364.252	48.35
364.461	48.3
364.671	48.25
364.88	46.83
365.09	46.83
365.299	47.26
365.509	46.95
365.718	46.61
365.927	46.61
366.137	47.03
366.346	47.03
366.555	45.89
366.765	45.22
366.974	44.92
367.183	46.97
367.393	45.63
367.602	46.21
367.811	46.25
368.021	45.56
368.23	44.25
368.439	44.24
368.648	44.45
368.857	44.27
369.067	44.46
369.276	45.29
369.485	44.83
369.694	46.18
369.903	45.65
370.112	45.32
370.321	45.45
370.531	45.29
370.74	43.93
370.949	43.6
371.158	43.61
371.367	43.59
371.576	42.66
371.785	42.01
371.994	41.33
372.203	41.92
372.412	42.52
372.621	42.59
372.83	43.59
373.039	43.93
373.248	44.35
373.457	44.17
373.666	43.98
373.874	44.59
374.083	43.83
374.292	43.59
374.501	42.4
374.71	42.2
374.919	42.65
375.128	41.87
375.336	41.84
375.545	41.09
375.754	40.51
375.963	40.59
376.171	40.37
376.38	40.96
376.589	40.76
376.798	41.13
377.006	41.16
377.215	40.82
377.424	40.69
377.632	40.9
377.841	41.49
378.05	41.39
378.258	40.42
378.467	39.65
378.675	38.91
378.884	38.79
379.093	39.02
379.301	38.86
379.51	38.92
379.718	39.18
379.927	39.1
380.135	38.73
380.344	39.48
380.552	40.14
380.761	40.69
380.969	41.58
381.177	41.63
381.386	41.2
381.594	41.55
381.803	41.13
382.011	41.24
382.219	41.29
382.428	41.07
382.636	40.77
382.845	40.29
383.053	39.6
383.261	39.67
383.469	39.32
383.678	39.02
383.886	38.16
384.094	38.19
384.302	37.37
384.511	36.67
384.719	35.91
384.927	36.13
385.135	36.18
385.343	36.7
385.552	36.76
385.76	36.95
385.968	36.99
386.176	36.97
386.384	36.75
386.592	37.23
386.8	37.29
387.008	37.39
387.216	36.87
387.424	36.78
387.633	36.33
387.841	35.53
388.049	35.79
388.257	35.31
388.465	35.21
388.672	35.13
388.88	35.06
389.088	35.45
389.296	35.67
389.504	34.93
389.712	34.36
389.92	33.86
390.128	33.93
390.336	33.6
390.544	33.93
390.751	34.1
390.959	34.23
391.167	33.93
391.375	33.53
391.583	33.84
391.79	34.31
391.998	34.62
392.206	35.22
392.414	35.39
392.621	35.62
392.829	35.21
393.037	35.14
393.244	34.89
393.452	34.81
393.66	35.03
393.867	34.25
394.075	34.22
394.283	34.9
394.49	34.76
394.698	34.7
394.905	34.34
395.113	34.19
395.32	33.85
395.528	34.07
395.735	34.39
395.943	34.27
396.15	34.71
396.358	34.78
396.565	34.36
396.773	34.19
396.98	34.39
397.188	34.13
397.395	34.49
397.602	34.65
397.81	34.32
398.017	34.05
398.225	34.27
398.432	34.56
398.639	34.47
398.847	34.68
399.054	34.49
399.261	34.39
399.468	34.44
399.676	34.42
399.883	34.51
400.09	35.15
400.297	35.34
400.505	34.83
400.712	34.88
400.919	35.21
401.126	35.09
401.333	35.4
401.54	35.07
401.748	35.32
401.955	35.53
402.162	35.52
402.369	35.42
402.576	35.26
402.783	35.32
402.99	35.12
403.197	34.69
403.404	34.55
403.611	34.86
403.818	34.87
404.025	34.86
404.232	34.86
404.439	34.97
404.646	34.79
404.853	34.72
405.06	34.99
405.267	34.99
405.474	34.86
405.681	35.03
405.887	34.63
406.094	34.7
406.301	34.79
406.508	35.03
406.715	34.75
406.922	34.83
407.128	35.17
407.335	34.96
407.542	34.95
407.749	35.08
407.955	35.03
408.162	35.01
408.369	35.11
408.575	35.4
408.782	35.05
408.989	35.24
409.195	34.94
409.402	34.7
409.609	34.84
409.815	34.78
410.022	35.16
410.228	34.95
410.435	34.7
410.642	34.58
410.848	34.39
411.055	34.48
411.261	34.64
411.468	34.62
411.674	34.54
411.881	34.35
412.087	34.2
412.294	34.07
412.5	34.05
412.706	34.32
412.913	34.03
413.119	33.83
413.326	33.85
413.532	33.63
413.738	34.05
413.945	34.3
414.151	34.74
414.357	35.15
414.564	35.47
414.77	35.5
414.976	35.71
415.182	36.38
415.389	36.59
415.595	36.5
415.801	36.66
416.007	36.29
416.214	36.2
416.42	35.74
416.626	35.46
416.832	34.98
417.038	34.9
417.244	34.73
417.45	34.17
417.657	33.82
417.863	33.67
418.069	33.59
418.275	33.59
418.481	33.39
418.687	33.46
418.893	33.54
419.099	33.59
419.305	33.57
419.511	33.5
419.717	33.62
419.923	33.56
420.129	33.52
420.335	33.32
420.541	33.28
420.746	33.33
420.952	33.27
421.158	33.3
421.364	33.23
421.57	33.18
421.776	33.22
421.982	33.05
422.187	33.21
422.393	33.29
422.599	33.4
422.805	33.39
423.01	33.48
423.216	33.56
423.422	33.35
423.628	33.25
423.833	33.13
424.039	33.03
424.245	33.12
424.45	33.07
424.656	33.01
424.862	32.93
425.067	32.92
425.273	32.84
425.478	32.77
425.684	32.81
425.889	32.91
426.095	33
426.301	32.96
426.506	33.08
426.712	33.05
426.917	32.86
427.123	32.73
427.328	32.72
427.533	32.41
427.739	32.35
427.944	32.32
428.15	32.42
428.355	32.59
428.561	32.63
428.766	32.44
428.971	32.43
429.177	32.53
429.382	32.4
429.587	32.34
429.793	32.52
429.998	32.52
430.203	32.37
430.408	32.52
430.614	32.37
430.819	32.48
431.024	32.5
431.229	32.33
431.434	32.29
431.64	32.82
431.845	33.09
432.05	32.97
432.255	32.83
432.46	33.01
432.665	32.76
432.87	32.55
433.076	32.58
433.281	32.64
433.486	32.71
433.691	32.94
433.896	32.97
434.101	32.61
434.306	32.79
434.511	32.98
434.716	32.73
434.921	32.79
435.126	32.81
435.331	32.54
435.535	32.46
435.74	32.47
435.945	32.11
436.15	31.85
436.355	31.95
436.56	31.98
436.765	32.09
436.97	32.21
437.174	32.05
437.379	32
437.584	32.09
437.789	32.19
437.993	32.01
438.198	32.28
438.403	32.3
438.608	32.27
438.812	32.3
439.017	32.16
439.222	32.21
439.426	32.21
439.631	32.47
439.836	32.61
440.04	32.57
440.245	32.71
440.45	32.55
440.654	32.6
440.859	32.76
441.063	32.69
441.268	32.65
441.472	32.74
441.677	32.73
441.881	32.53
442.086	32.41
442.29	32.6
442.495	32.57
442.699	32.55
442.904	32.51
443.108	32.36
443.312	32.23
443.517	32.21
443.721	32.22
443.925	32.14
444.13	32.23
444.334	32.32
444.538	32.09
444.743	32.02
444.947	32.16
445.151	32.19
445.356	32.37
445.56	32.45
445.764	32.37
445.968	32.24
446.173	32.39
446.377	32.23
446.581	32.06
446.785	31.99
446.989	31.99
447.193	31.95
447.398	31.89
447.602	31.79
447.806	31.71
448.01	31.81
448.214	31.92
448.418	31.93
448.622	32.17
448.826	32.46
449.03	32.48
449.234	32.61
449.438	32.56
449.642	32.55
449.846	32.4
450.05	32.53
450.254	32.3
450.458	32.06
450.662	31.87
450.866	31.68
451.069	31.48
451.273	31.55
451.477	31.54
451.681	31.59
451.885	31.55
452.089	31.66
452.292	31.34
452.496	31.62
452.7	31.65
452.904	31.51
453.107	31.51
453.311	31.45
453.515	31.28
453.719	31.05
453.922	31.24
454.126	31.32
454.33	31.27
454.533	31.41
454.737	31.33
454.94	31.57
455.144	31.55
455.348	31.85
455.551	31.96
455.755	32.19
455.958	32.27
456.162	31.75
456.365	32.03
456.569	31.89
456.772	31.97
456.976	31.73
457.179	31.41
457.383	31.71
457.586	31.62
457.79	31.62
457.993	31.44
458.196	31.58
458.4	32
458.603	31.63
458.807	31.71
459.01	31.79
459.213	31.94
459.417	32.15
459.62	32.05
459.823	32.02
460.026	31.98
460.23	32.13
460.433	32.01
460.636	31.91
460.839	31.96
461.042	32.11
461.246	32.13
461.449	32.13
461.652	32.01
461.855	31.94
462.058	31.85
462.261	31.91
462.464	31.75
462.668	31.92
462.871	31.94
463.074	32.08
463.277	32
463.48	32.11
463.683	32.23
463.886	32.31
464.089	32.66
464.292	32.93
464.495	32.89
464.698	33.11
464.901	33.4
465.104	33.39
465.306	33.43
465.509	33.43
465.712	33.11
465.915	33.02
466.118	32.87
466.321	32.76
466.524	32.63
466.726	32.53
466.929	32.47
467.132	32.05
467.335	32.16
467.538	32.02
467.74	31.88
467.943	31.79
468.146	31.84
468.348	32.12
468.551	32.18
468.754	32.32
468.956	32.33
469.159	32.31
469.362	32.59
469.564	32.62
469.767	32.58
469.969	32.74
470.172	32.96
470.375	32.88
470.577	32.89
470.78	32.77
470.982	32.6
471.185	32.65
471.387	32.85
471.59	32.71
471.792	32.44
471.995	32.5
472.197	32.26
472.399	32.19
472.602	32.28
472.804	32.06
473.007	32.06
473.209	32.05
473.411	32.11
473.614	31.84
473.816	31.89
474.018	31.84
474.22	31.88
474.423	31.93
474.625	32.22
474.827	32.36
475.03	32.52
475.232	32.78
475.434	32.81
475.636	32.86
475.838	33.08
476.04	32.92
476.243	33.16
476.445	33.2
476.647	33.57
476.849	33.32
477.051	33.12
477.253	32.98
477.455	32.83
477.657	32.84
477.859	32.86
478.061	32.72
478.263	32.89
478.465	32.87
478.667	32.88
478.869	32.7
479.071	32.79
479.273	32.69
479.475	32.61
479.677	32.6
479.879	32.61
480.081	32.4
480.283	32.39
480.485	32.44
480.686	32.47
480.888	32.47
481.09	32.53
481.292	32.47
481.494	32.51
481.695	32.72
481.897	32.85
482.099	32.82
482.301	33.02
482.502	33.09
482.704	32.87
482.906	32.88
483.107	32.85
483.309	32.85
483.511	32.92
483.712	33
483.914	33.03
484.115	32.95
484.317	32.99
484.519	32.93
484.72	32.87
484.922	32.97
485.123	32.92
485.325	32.96
485.526	32.89
485.728	32.85
485.929	32.84
486.131	32.69
486.332	32.71
486.534	32.69
486.735	32.67
486.936	32.75
487.138	32.75
487.339	32.73
487.541	32.75
487.742	32.84
487.943	32.87
488.144	32.89
488.346	33.01
488.547	33
488.748	32.93
488.95	32.92
489.151	32.88
489.352	32.78
489.553	32.82
489.755	32.8
489.956	32.79
490.157	32.68
490.358	32.66
490.559	32.59
490.76	32.65
490.961	32.79
491.163	32.92
491.364	32.84
491.565	32.92
491.766	32.9
491.967	32.79
492.168	32.72
492.369	32.68
492.57	32.67
492.771	32.57
492.972	32.48
493.173	32.31
493.374	32.21
493.575	32.29
493.776	32.17
493.976	32.13
494.177	32.23
494.378	32.36
494.579	32.46
494.78	32.36
494.981	32.42
495.182	32.42
495.382	32.55
495.583	32.38
495.784	32.3
495.985	32.31
496.185	32.46
496.386	32.5
496.587	32.33
496.788	32.29
496.988	32.42
497.189	32.59
497.39	32.69
497.59	32.85
497.791	32.95
497.992	33.06
498.192	33.28
498.393	33.23
498.593	33.17
498.794	33.25
498.994	33.53
499.195	33.44
499.395	33.49
499.596	33.47
499.796	33.28
499.997	33.25
500.197	33.18
500.398	33.05
500.598	32.94
500.799	33.12
500.999	33.06
501.199	32.73
501.4	32.87
501.6	32.78
501.801	32.79
502.001	32.93
502.201	33.01
502.402	33.17
502.602	33.32
502.802	33.38
503.002	33.41
503.203	33.67
503.403	34.1
503.603	33.98
503.803	33.94
504.003	34.19
504.204	34.09
504.404	34.23
504.604	34.18
504.804	34.06
505.004	34.35
505.204	34.33
505.404	34.34
505.604	34.31
505.804	34.23
506.005	34.29
506.205	34.09
506.405	34.13
506.605	33.98
506.805	34.06
507.005	34.2
507.204	34.13
507.404	34.12
507.604	34.15
507.804	33.91
508.004	34.08
508.204	34.09
508.404	34.25
508.604	34.26
508.804	34.37
509.003	34.43
509.203	34.53
509.403	34.63
509.603	34.61
509.803	34.55
510.002	34.73
510.202	34.8
510.402	35.01
510.602	34.98
510.801	35.17
511.001	35.46
511.201	35.38
511.4	35.6
511.6	35.66
511.8	35.76
511.999	36
512.199	36.07
512.398	36.15
512.598	36.2
512.797	36.39
512.997	36.36
513.197	36.14
513.396	36.37
513.596	36.36
513.795	36.32
513.994	36.51
514.194	36.43
514.393	36.53
514.593	36.72
514.792	36.76
514.992	36.86
515.191	36.92
515.39	37.02
515.59	37.07
515.789	37.06
515.988	37.05
516.188	37.08
516.387	37.16
516.586	37.22
516.786	37.28
516.985	37.42
517.184	37.4
517.383	37.67
517.582	37.88
517.782	38.02
517.981	38.18
518.18	38.48
518.379	38.64
518.578	38.88
518.777	38.95
518.976	39.04
519.176	38.99
519.375	39.07
519.574	39.11
519.773	39.2
519.972	39.25
520.171	39.35
520.37	39.37
520.569	39.25
520.768	39.17
520.967	39.22
521.166	39.2
521.365	39.52
521.564	39.64
521.762	39.7
521.961	39.86
522.16	39.98
522.359	39.92
522.558	40.06
522.757	40.17
522.956	40.34
523.154	40.54
523.353	40.59
523.552	40.63
523.751	40.8
523.949	40.77
524.148	40.9
524.347	40.96
524.546	41.19
524.744	41.13
524.943	41.35
525.142	41.5
525.34	41.68
525.539	41.92
525.737	41.94
525.936	42.05
526.135	42.25
526.333	42.37
526.532	42.58
526.73	42.74
526.929	43.01
527.127	43.1
527.326	43.15
527.524	43.33
527.723	43.47
527.921	43.62
528.12	43.83
528.318	43.9
528.516	43.97
528.715	44.06
528.913	44.15
529.112	44.19
529.31	44.34
529.508	44.43
529.707	44.41
529.905	44.41
530.103	44.4
530.301	44.35
530.5	44.47
530.698	44.48
530.896	44.53
531.094	44.6
531.293	44.76
531.491	44.77
531.689	44.82
531.887	45.07
532.085	45.34
532.283	45.52
532.481	45.61
532.68	45.82
532.878	45.92
533.076	45.91
533.274	45.92
533.472	45.93
533.67	46.05
533.868	46.27
534.066	46.22
534.264	46.12
534.462	46.16
534.66	46.25
534.858	46.18
535.056	46.32
535.253	46.4
535.451	46.52
535.649	46.6
535.847	46.76
536.045	46.73
536.243	46.9
536.441	47.01
536.638	47.04
536.836	47.08
537.034	47.09
537.232	47.11
537.43	47.18
537.627	46.98
537.825	46.93
538.023	46.85
538.22	46.89
538.418	46.76
538.616	46.71
538.813	46.84
539.011	46.77
539.209	46.75
539.406	46.77
539.604	46.89
539.801	47.22
539.999	47.52
540.196	47.5
540.394	47.64
540.591	47.76
540.789	47.93
540.986	48.05
541.184	48.21
541.381	48.38
541.579	48.5
541.776	48.57
541.974	48.61
542.171	48.55
542.368	48.57
542.566	48.44
542.763	48.55
542.96	48.56
543.158	48.6
543.355	48.47
543.552	48.34
543.75	48.27
543.947	48.19
544.144	47.86
544.341	47.84
544.539	47.86
544.736	47.98
544.933	47.87
545.13	47.94
545.327	47.87
545.524	47.97
545.722	48.25
545.919	48.26
546.116	48.28
546.313	48.85
546.51	48.87
546.707	48.98
546.904	49.1
547.101	49.11
547.298	49.3
547.495	49.34
547.692	49.41
547.889	49.26
548.086	49.5
548.283	49.55
548.48	49.39
548.677	49.4
548.874	49.32
549.07	49.32
549.267	49.27
549.464	48.96
549.661	49.05
549.858	49.28
550.055	49.17
550.251	48.95
550.448	48.93
550.645	49.05
550.842	49.27
551.038	49.43
551.235	49.25
551.432	49.33
551.628	49.41
551.825	49.42
552.022	49.27
552.218	49.19
552.415	49.16
552.612	49.4
552.808	49.36
553.005	49.38
553.201	49.44
553.398	49.74
553.594	49.84
553.791	49.99
553.987	49.92
554.184	50.04
554.38	50.42
554.577	50.4
554.773	50.33
554.97	50.3
555.166	50.39
555.362	50.26
555.559	49.93
555.755	49.88
555.952	50
556.148	50.03
556.344	49.92
556.541	49.98
556.737	50.22
556.933	50.34
557.129	50.27
557.326	50.14
557.522	50.34
557.718	50.88
557.914	51.18
558.11	50.98
558.307	51.04
558.503	50.98
558.699	50.89
558.895	50.78
559.091	50.7
559.287	50.76
559.483	50.58
559.679	50.4
559.876	50.28
560.072	50.2
560.268	50.37
560.464	50.63
560.66	50.96
560.856	50.81
561.052	51.24
561.247	51.4
561.443	51.36
561.639	51.67
561.835	51.87
562.031	51.59
562.227	51.58
562.423	51.49
562.619	51.18
562.815	51.43
563.01	51.36
563.206	51.14
563.402	51.33
563.598	51.71
563.793	51.56
563.989	51.69
564.185	51.59
564.381	51.69
564.576	51.92
564.772	52.07
564.968	51.93
565.163	52.32
565.359	52.27
565.555	51.85
565.75	51.56
565.946	51.65
566.141	51.58
566.337	51.8
566.532	51.96
566.728	51.85
566.923	52.2
567.119	52.17
567.314	52.05
567.51	52.13
567.705	52.26
567.901	52.31
568.096	52.38
568.292	52.4
568.487	52.48
568.682	52.43
568.878	52.45
569.073	52.22
569.268	52.19
569.464	52.36
569.659	52.31
569.854	52.18
570.05	52.23
570.245	52.33
570.44	52.57
570.635	52.88
570.831	52.64
571.026	52.83
571.221	52.6
571.416	52.48
571.611	52.22
571.806	52.21
572.002	52.52
572.197	52.62
572.392	52.62
572.587	52.51
572.782	52.23
572.977	52.38
573.172	52.33
573.367	52.47
573.562	52.49
573.757	52.75
573.952	53.04
574.147	53.12
574.342	53.07
574.537	53.11
574.732	53.03
574.927	53.25
575.121	53.34
575.316	53.29
575.511	53.27
575.706	53.45
575.901	53.58
576.096	53.56
576.29	53.28
576.485	53.36
576.68	53.3
576.875	53.3
577.069	53.13
577.264	52.97
577.459	52.93
577.654	52.93
577.848	53.06
578.043	52.67
578.238	52.43
578.432	52.47
578.627	52.57
578.821	52.65
579.016	52.73
579.21	52.68
579.405	52.69
579.6	52.6
579.794	52.74
579.989	52.31
580.183	52.4
580.378	52.57
580.572	52.91
580.766	52.55
580.961	52.34
581.155	52.33
581.35	52.44
581.544	52.52
581.738	52.68
581.933	52.55
582.127	52.54
582.321	52.54
582.516	52.49
582.71	52.3
582.904	52.61
583.099	52.8
583.293	52.5
583.487	52.22
583.681	52.27
583.875	52.18
584.07	52.26
584.264	52.35
584.458	52.16
584.652	52.37
584.846	52.08
585.04	52.18
585.234	52.2
585.428	52.49
585.623	52.75
585.817	52.84
586.011	53.08
586.205	53.28
586.399	53.64
586.593	53.87
586.787	53.74
586.981	53.86
587.174	53.67
587.368	53.57
587.562	53.51
587.756	53.62
587.95	53.53
588.144	53.43
588.338	53.41
588.532	53.27
588.725	53.34
588.919	53.47
589.113	53.63
589.307	53.6
589.501	53.77
589.694	53.86
589.888	53.63
590.082	53.43
590.275	53.27
590.469	53.39
590.663	53.09
590.856	53.08
591.05	52.95
591.244	53.03
591.437	53.07
591.631	53.09
591.824	53.17
592.018	53.53
592.212	53.5
592.405	53.52
592.599	53.25
592.792	53.56
592.986	53.65
593.179	53.6
593.372	53.79
593.566	54.06
593.759	53.94
593.953	53.94
594.146	53.49
594.339	53.73
594.533	53.76
594.726	54.02
594.92	53.86
595.113	54.06
595.306	54.19
595.499	54.01
595.693	53.73
595.886	53.77
596.079	54.09
596.272	54.28
596.466	54.47
596.659	54.49
596.852	54.45
597.045	54.48
597.238	54.33
597.431	54.29
597.624	54.14
597.818	54.31
598.011	54.32
598.204	53.99
598.397	54.06
598.59	53.91
598.783	53.97
598.976	53.68
599.169	53.94
599.362	54.05
599.555	53.94
599.748	53.94
599.941	53.96
600.134	53.93
600.326	53.97
600.519	53.9
600.712	53.49
600.905	53.37
601.098	53.46
601.291	53.3
601.483	53.09
601.676	53.16
601.869	53.48
602.062	53.35
602.255	53.39
602.447	53.47
602.64	53.73
602.833	54.08
603.025	54.2
603.218	54.19
603.411	54.19
603.603	54.52
603.796	54.55
603.989	54.39
604.181	54.67
604.374	54.93
604.566	54.83
604.759	54.63
604.951	54.59
605.144	54.73
605.336	54.73
605.529	54.86
605.721	54.71
605.914	54.89
606.106	55.2
606.299	54.91
606.491	54.56
606.683	54.39
606.876	54.42
607.068	54.49
607.26	54.33
607.453	54.45
607.645	54.44
607.837	54.3
608.03	53.95
608.222	53.53
608.414	53.72
608.606	53.82
608.799	54.15
608.991	54.06
609.183	53.92
609.375	53.88
609.567	53.54
609.759	53.21
609.952	52.92
610.144	52.81
610.336	52.69
610.528	52.38
610.72	52.32
610.912	52.08
611.104	51.94
611.296	51.57
611.488	51.08
611.68	50.96
611.872	51.03
612.064	51.12
612.256	51.13
612.448	51.2
612.64	51.19
612.832	51.22
613.023	51.36
613.215	51.53
613.407	51.89
613.599	52.46
613.791	52.86
613.983	52.86
614.174	52.94
614.366	52.83
614.558	53.22
614.75	53.04
614.941	52.88
615.133	52.88
615.325	52.78
615.516	53.01
615.708	53.01
615.9	53.11
616.091	53.57
616.283	53.78
616.475	53.84
616.666	53.6
616.858	53.75
617.049	53.62
617.241	53.75
617.432	53.78
617.624	54.09
617.815	53.97
618.007	53.76
618.198	53.42
618.39	53.35
618.581	53.46
618.773	53.37
618.964	53.47
619.155	54.11
619.347	54.15
619.538	54.08
619.729	53.55
619.921	53.63
620.112	53.96
620.303	54.17
620.494	54.12
620.686	53.83
620.877	54.2
621.068	54.36
621.259	53.93
621.451	53.55
621.642	53.8
621.833	53.86
622.024	53.93
622.215	53.44
622.406	53.47
622.597	53.29
622.788	53.57
622.98	53.06
623.171	52.83
623.362	52.86
623.553	53.02
623.744	53.1
623.935	53.09
624.126	52.76
624.317	53.1
624.508	53.04
624.698	53.25
624.889	53.32
625.08	53.81
625.271	54.04
625.462	53.94
625.653	54.03
625.844	53.93
626.034	54.03
626.225	54.26
626.416	54.48
626.607	54.69
626.798	54.59
626.988	54.67
627.179	54.16
627.37	53.89
627.56	53.86
627.751	54.18
627.942	54.41
628.132	54.46
628.323	54.58
628.514	54.3
628.704	54.06
628.895	53.94
629.085	53.75
629.276	54.11
629.466	54.5
629.657	54.62
629.847	54.46
630.038	54.71
630.228	54.73
630.419	54.47
630.609	54.59
630.8	54.75
630.99	54.57
631.181	54.53
631.371	54.47
631.561	54.54
631.752	54.63
631.942	54.42
632.132	54.27
632.323	54.49
632.513	54.72
632.703	54.77
632.893	54.53
633.084	54.64
633.274	54.91
633.464	55.11
633.654	54.7
633.844	54.68
634.034	54.71
634.225	54.14
634.415	53.95
634.605	53.75
634.795	53.96
634.985	53.81
635.175	54.29
635.365	54.34
635.555	54.17
635.745	54.6
635.935	54.49
636.125	54.4
636.315	54.95
636.505	54.73
636.695	54.85
636.885	54.47
637.075	54.7
637.265	54.49
637.455	54.3
637.644	54.32
637.834	53.88
638.024	54.11
638.214	54.18
638.404	53.75
638.593	53.34
638.783	53.59
638.973	53.4
639.163	53.3
639.352	53.39
639.542	53.68
639.732	53.64
639.921	53.57
640.111	53.52
640.301	53.57
640.49	53.61
640.68	54.54
640.87	53.84
641.059	53.99
641.249	54.33
641.438	54.06
641.628	54.13
641.817	54.19
642.007	54.38
642.196	54.12
642.386	53.74
642.575	53.82
642.764	53.49
642.954	53.92
643.143	54.15
643.333	53.58
643.522	54.05
643.711	54.23
643.901	53.87
644.09	54.37
644.279	54.08
644.469	54.24
644.658	54.25
644.847	54.45
645.036	54.71
645.226	54.55
645.415	54.72
645.604	54.38
645.793	53.71
645.982	54.02
646.171	53.79
646.361	53.98
646.55	54.36
646.739	54.4
646.928	54.25
647.117	54.07
647.306	54.13
647.495	54.65
647.684	54.74
647.873	55.06
648.062	54.88
648.251	55.18
648.44	55.63
648.629	55.26
648.818	55.31
649.007	55.45
649.196	55.41
649.384	55.39
649.573	54.85
649.762	55.13
649.951	55.05
650.14	56.01
650.328	55.69
650.517	55.33
650.706	55.28
650.895	54.79
651.083	54.56
651.272	54.82
651.461	54.98
651.65	54.83
651.838	54.26
652.027	54.48
652.216	54.17
652.404	54.04
652.593	54.03
652.781	54.4
652.97	54.75
653.158	55.21
653.347	55.31
653.535	55.24
653.724	55.59
653.912	55.85
654.101	55.83
654.289	55.26
654.478	55.8
654.666	55.48
654.855	55.01
655.043	54.98
655.231	54.92
655.42	54.56
655.608	54.46
655.796	54.42
655.985	54.28
656.173	54.51
656.361	54.81
656.55	54.04
656.738	54.68
656.926	54.89
657.114	55.21
657.302	54.9
657.491	55
657.679	55.33
657.867	55.39
658.055	55.81
658.243	55.37
658.431	55.3
658.619	55.64
658.807	55.58
658.996	55.57
659.184	55.5
659.372	55.53
659.56	55.17
659.748	55.16
659.936	54.97
660.124	54.7
660.311	54.72
660.499	54.54
660.687	54.33
660.875	53.84
661.063	53.85
661.251	53.66
661.439	53.62
661.627	53.96
661.814	53.62
662.002	53.52
662.19	53.92
662.378	53.76
662.565	53.77
662.753	53.84
662.941	54.44
663.129	54.71
663.316	54.24
663.504	54.3
663.692	53.94
663.879	53.67
664.067	53.96
664.254	53.61
664.442	54.16
664.63	54.14
664.817	53.32
665.005	52.76
665.192	52.23
665.38	52.74
665.567	52.07
665.755	52.94
665.942	53.21
666.13	53.1
666.317	52.96
666.504	52.72
666.692	53.05
666.879	54.45
667.067	54.64
667.254	55.03
667.441	54.57
667.629	55.15
667.816	54.22
668.003	54.48
668.19	54.67
668.378	54.5
668.565	54.22
668.752	54.38
668.939	54.08
669.127	53.7
669.314	53.96
669.501	54.38
669.688	54.28
669.875	54.59
670.062	54.49
670.249	54.73
670.436	54.94
670.623	55.11
670.81	55.03
670.997	54.73
671.184	55.88
671.371	55.57
671.558	55.2
671.745	55.28
671.932	54.99
672.119	54.99
672.306	55.05
672.493	55.6
672.68	55.4
672.867	55.8
673.054	56.12
673.24	55.75
673.427	55.84
673.614	56.32
673.801	56.6
673.988	57.35
674.174	57.24
674.361	56.23
674.548	55.53
674.734	55.53
674.921	55.19
675.108	54.75
675.294	54.8
675.481	54.92
675.668	55.14
675.854	54.96
676.041	54.13
676.227	54.5
676.414	55.04
676.601	55.31
676.787	55.42
676.974	55.12
677.16	55.46
677.347	54.83
677.533	55.34
677.719	54.67
677.906	54.56
678.092	54.77
678.279	54.83
678.465	54.89
678.651	54.35
678.838	54.63
679.024	54.52
679.21	54.58
679.397	54.75
679.583	54.47
679.769	54.4
679.955	54.88
680.142	55.3
680.328	55.17
680.514	54.95
680.7	55
680.886	55.19
681.073	54.91
681.259	54.52
681.445	54.99
681.631	54.21
681.817	54.86
682.003	54.83
682.189	54.69
682.375	54.98
682.561	55.19
682.747	55.55
682.933	55.16
683.119	55.48
683.305	56.06
683.491	55.63
683.677	56.64
683.863	55.89
684.049	55.13
684.235	55.58
684.42	55.02
684.606	54.97
684.792	55.02
684.978	55.14
685.164	55.15
685.349	55.12
685.535	55.9
685.721	55.21
685.907	55.8
686.092	56.05
686.278	55.59
686.464	55.4
686.649	56.36
686.835	55.98
687.021	56.16
687.206	56.16
687.392	55.79
687.577	55.09
687.763	55.68
687.948	55.81
688.134	56.15
688.319	56.93
688.505	57.04
688.69	56.27
688.876	56.53
689.061	55.92
689.247	55.72
689.432	55.44
689.618	55.21
689.803	54.78
689.988	54.71
690.174	54.42
690.359	54.15
690.544	54.23
690.73	53.98
690.915	54.59
691.1	55.29
691.285	55.42
691.471	55.76
691.656	56.13
691.841	56.23
692.026	56.15
692.211	55.72
692.396	54.73
692.582	54.63
692.767	54.86
692.952	54.25
693.137	54.3
693.322	54.51
693.507	54.44
693.692	54.5
693.877	53.8
694.062	53.79
694.247	53.87
694.432	54.28
694.617	54.8
694.802	54.53
694.987	54.18
695.172	53.86
695.357	53.68
695.541	52.73
695.726	52.61
695.911	53.11
696.096	53.03
696.281	53.37
696.466	53.05
696.65	52.7
696.835	53.24
697.02	54.04
697.204	54.56
697.389	54.08
697.574	54.71
697.759	55.05
697.943	54.83
698.128	54.75
698.312	54.76
698.497	54.65
698.682	54.75
698.866	54.56
699.051	54.31
699.235	54.22
699.42	54.39
699.604	54.38
699.789	54.14
699.973	54.28
700.158	54.11
700.342	54.41
700.527	54.95
700.711	54.93
700.895	54.49
701.08	54.49
701.264	53.98
701.448	54.44
701.633	54.54
701.817	54.52
702.001	54.29
702.186	54.33
702.37	54.19
702.554	54.69
702.738	54.28
702.923	54.87
703.107	55.37
703.291	54.61
703.475	55.72
703.659	56.59
703.843	56.39
704.027	57.57
704.212	58.27
704.396	58.28
704.58	58
704.764	58.39
704.948	57.73
705.132	57.32
705.316	57.95
705.5	56.98
705.684	56.48
705.868	56.26
706.052	55.91
706.235	55.82
706.419	55.58
706.603	54.95
706.787	55.1
706.971	56.26
707.155	55.72
707.339	55.89
707.522	54.93
707.706	53.94
707.89	54.62
708.074	53.57
708.257	53.47
708.441	53.93
708.625	54.16
708.808	53.14
708.992	52.62
709.176	53.42
709.359	54.01
709.543	54.08
709.727	54.37
709.91	53.92
710.094	53.68
710.277	53.43
710.461	52.4
710.644	51.83
710.828	53.21
711.011	53.22
711.195	52.67
711.378	52.19
711.562	52.38
711.745	53.39
711.928	53.46
712.112	54.34
712.295	54.54
712.478	54.92
712.662	54.86
712.845	54.43
713.028	54.36
713.212	55.4
713.395	55.81
713.578	56.71
713.761	55.92
713.945	55.81
714.128	54.93
714.311	54.55
714.494	54.53
714.677	54.67
714.86	54.69
715.043	54.72
715.227	53.07
715.41	52.35
715.593	51.95
715.776	52.24
715.959	52.79
716.142	53.54
716.325	54.01
716.508	54.09
716.691	54.28
716.874	54.6
717.057	54.29
717.239	55.5
717.422	56.12
717.605	55.61
717.788	55.13
717.971	54.63
718.154	55.09
718.337	54.91
718.519	56.04
718.702	57.28
718.885	56.06
719.068	56.24
719.25	55.55
719.433	55.19
719.616	55.21
719.798	56.36
719.981	56.44
720.164	55.69
720.346	56.31
720.529	55.45
720.712	54.39
720.894	53.68
721.077	54.07
721.259	53.98
721.442	53.73
721.624	55.09
721.807	54.29
721.989	54.74
722.172	54.54
722.354	53.97
722.537	54.5
722.719	55.04
722.901	56.64
723.084	56.77
723.266	56.82
723.448	56.9
723.631	57.48
723.813	57.13
723.995	57
724.178	57.86
724.36	58.06
724.542	57.17
724.724	55.76
724.907	56.45
725.089	55.56
725.271	55.37
725.453	55.76
725.635	54.22
725.817	54.96
725.999	54.83
726.181	54.15
726.364	53.93
726.546	53.34
726.728	54.49
726.91	53.84
727.092	54.2
727.274	54.39
727.456	54.83
727.638	54.75
727.819	54.12
728.001	53.98
728.183	55.16
728.365	55
728.547	56.5
728.729	55.97
728.911	56.85
729.093	57.38
729.274	58.6
729.456	58.61
729.638	59.33
729.82	59.06
730.001	58.85
730.183	57.37
730.365	57.42
730.546	56.07
730.728	56.82
730.91	56.43
731.091	56.29
731.273	55.67
731.455	55.34
731.636	55.08
731.818	56.41
731.999	55.84
732.181	55.96
732.362	55.85
732.544	57.08
732.725	56.26
732.907	54.73
733.088	54.98
733.27	53.67
733.451	53.18
733.633	53.97
733.814	53.03
733.995	52.83
734.177	54.27
734.358	54.11
734.539	53.85
734.721	54.04
734.902	54.4
735.083	54.79
735.264	54.83
735.446	55.23
735.627	54.83
735.808	54.08
735.989	55.04
736.17	55.54
736.351	56.09
736.533	55.21
736.714	56.01
736.895	56.65
737.076	54.92
737.257	55.86
737.438	56.89
737.619	55.34
737.8	55.19
737.981	54.92
738.162	53.16
738.343	53.22
738.524	53.71
738.705	53.36
738.886	54.01
739.067	54.13
739.247	52.75
739.428	51.7
739.609	52.06
739.79	53.73
739.971	53.2
740.151	53.06
740.332	54.18
740.513	54.32
740.694	54.78
740.874	54.25
741.055	54.07
741.236	56.34
741.417	57.02
741.597	56.22
741.778	55.45
741.958	56.35
742.139	56.62
742.32	54.62
742.5	54.5
742.681	52.65
742.861	53.74
743.042	54.12
743.222	53.92
743.403	52.77
743.583	53.8
743.764	54.08
743.944	54.74
744.124	54.54
744.305	53.47
744.485	53.03
744.666	54.81
744.846	53.09
745.026	53.74
745.207	52.75
745.387	54.05
745.567	54.95
745.747	55.8
745.928	56.07
746.108	56.45
746.288	58.13
746.468	57.94
746.648	57.4
746.829	58.08
747.009	56.55
747.189	57.82
747.369	57.41
747.549	56.33
747.729	55.9
747.909	53.9
748.089	54.03
748.269	53.77
748.449	52.72
748.629	51.74
748.809	52.78
748.989	52.85
749.169	52.58
749.349	52.75
749.529	53.5
749.709	52.97
749.889	53.34
750.068	52.71
750.248	52.13
750.428	53.93
750.608	53.28
750.788	50.85
750.967	52.97
751.147	52.18
751.327	50.11
751.507	48.95
751.686	48.28
751.866	49.11
752.046	48.89
752.225	49.96
752.405	49.67
752.585	53.6
752.764	54.68
752.944	53.47
753.123	53.38
753.303	53.77
753.482	52.54
753.662	53.23
753.841	52.52
754.021	52.78
754.2	52.07
754.38	51.47
754.559	48.37
754.739	49.17
754.918	49.26
755.097	49.02
755.277	49.71
755.456	52.21
755.635	53.41
755.815	54.56
755.994	55.26
756.173	56.65
756.352	57.35
756.532	56.95
756.711	56.17
756.89	56.77
757.069	57.04
757.248	56.51
757.427	54.84
757.607	53.21
757.786	53.1
757.965	52.5
758.144	53.11
758.323	53.61
758.502	55.04
758.681	54.95
758.86	54.98
759.039	55.24
759.218	56.38
759.397	59.01
759.576	59.42
759.755	58.96
759.934	58.21
760.113	58.7
760.291	57.98
760.47	55.74
760.649	56.51
760.828	55.55
761.007	54.83
761.186	54.17
761.364	53.05
761.543	53.43
761.722	53.43
761.901	53.92
762.079	51.9
762.258	51.27
762.437	52.28
762.615	52.03
762.794	52.04
762.972	52.79
763.151	53.92
763.33	53.95
763.508	54.36
763.687	54.73
763.865	54.95
764.044	55.29
764.222	56.35
764.401	56.34
764.579	55.86
764.758	56.13
764.936	56.26
765.114	55.89
765.293	55.65
765.471	54.63
765.65	53.76
765.828	54.83
766.006	54.88
766.184	52.73
766.363	53.43
766.541	53.24
766.719	52.82
766.898	51.86
767.076	52.11
767.254	51.87
767.432	52.56
767.61	53.8
767.788	52.22
767.967	51.47
768.145	52.21
768.323	52.86
768.501	54.97
768.679	56.38
768.857	55.73
769.035	55.08
769.213	56.4
769.391	55.17
769.569	54.91
769.747	55.76
769.925	55.65
770.103	57.44
770.281	55.94
770.459	54.53
770.636	55.41
770.814	55.88
770.992	56.1
771.17	53.48
771.348	53.49
771.525	50.76
771.703	48.64
771.881	49.49
772.059	49.63
772.236	50.29
772.414	49.78
772.592	48.22
772.769	48.31
772.947	48.58
773.125	51.57
773.302	52.88
773.48	56.14
773.657	58.29
773.835	59.38
774.013	57.07
774.19	54.94
774.368	58.11
774.545	57.76
774.723	58.12
774.9	55.38
775.077	52.93
775.255	50.69
775.432	50.27
775.61	46.93
775.787	44.87
775.964	45.17
776.142	45.34
776.319	40.93
776.496	40.96
776.674	43.49
776.851	47.35
777.028	49.64
777.205	53.09
777.382	53.24
777.56	55.68
777.737	55.66
777.914	57.3
778.091	58.98
778.268	59.1
778.445	57.27
778.622	57.17
778.8	57.63
778.977	59.46
779.154	59.97
779.331	59.28
779.508	59.26
779.685	61.66
779.862	60.64
780.038	58.09
780.215	58.24
780.392	61.91
780.569	56.74
780.746	55.39
780.923	53.41
781.1	51.11
781.277	50.8
781.453	50.07
781.63	47.23
781.807	44.85
781.984	47.8
782.16	49.91
782.337	44.91
782.514	46.6
782.691	46.78
782.867	44.56
783.044	45.64
783.221	46.43
783.397	47.67
783.574	47.18
783.75	49.59
783.927	50.66
784.103	52.76
784.28	55.72
784.456	54.94
784.633	53.13
784.809	54.7
784.986	53.31
785.162	54.86
785.339	56.25
785.515	59.87
785.692	60.71
785.868	59.38
786.044	54.97
786.221	57.74
786.397	59.32
786.573	60.37
786.749	59.86
786.926	61.76
787.102	57.25
787.278	56.07
787.454	53.04
787.631	53.21
787.807	51.42
787.983	50.89
788.159	47.54
788.335	46.91
788.511	46.26
788.687	48.42
788.863	49.74
789.039	51.08
789.216	50.41
789.392	52.37
789.568	55.07
789.744	56.49
789.919	57.56
790.095	60.82
790.271	62.39
790.447	62.97
790.623	62.09
790.799	61.53
790.975	64.61
791.151	66.61
791.327	68.88
791.502	64.13
791.678	62.57
791.854	64.12
792.03	63.02
792.205	60.95
792.381	62.07
792.557	58.66
792.733	55.37
792.908	54.52
793.084	52.87
793.259	52.49
793.435	54.21
793.611	52.67
793.786	52.49
793.962	51.73
794.137	53.54
794.313	52.47
794.488	55.91
794.664	58.89
794.839	58.83
795.015	55.63
795.19	55.2
795.366	55.51
795.541	55.5
795.716	55.41
795.892	51.99
796.067	54.84
796.242	55.61
796.418	56.96
796.593	57.92
796.768	59.54
796.944	62.99
797.119	60.67
797.294	57.91
797.469	62.61
797.644	61.99
797.82	64.62
797.995	61.32
798.17	62.17
798.345	59.21
798.52	55.62
798.695	54.7
798.87	55.46
799.045	55.89
799.22	57.64
799.395	55.24
799.57	54.19
799.745	52.17
799.92	52.41
800.095	47.05
800.27	49.42
800.445	52.11
800.62	51.05
800.795	50.72
800.97	51.31
801.145	51.68
801.319	50.94
801.494	49.1
801.669	48.03
801.844	49.69
802.018	52.41
802.193	52.72
802.368	49.54
802.543	47.59
802.717	47.23
802.892	49.05
803.067	51.57
803.241	48.83
803.416	52.86
803.59	54.49
803.765	52.06
803.94	49.3
804.114	48.6
804.289	50.71
804.463	50.43
804.638	53.37
804.812	49.26
804.986	44.96
805.161	50.61
805.335	48.33
805.51	46.48
805.684	46.4
805.858	49.69
806.033	48.57
806.207	47.19
806.381	45.06
806.556	42.26
806.73	46.7
806.904	51.74
807.078	48.73
807.253	48.44
807.427	51.87
807.601	53.66
807.775	52.93
807.949	53.73
808.123	52.82
808.298	57.8
808.472	57.35
808.646	52.8
808.82	53.76
808.994	55.54
809.168	59.46
809.342	60.15
809.516	58.62
809.69	61.7
809.864	61.36
810.038	63.97
810.212	54.73
810.385	54.72
810.559	53.44
810.733	52.36
810.907	46.89
811.081	42.97
811.255	45.6
811.428	49.79
811.602	43.18
811.776	42.98
811.95	43.2
812.123	57.19
812.297	59.18
812.471	64.09
812.644	61.81
812.818	67.57
812.992	69.4
813.165	68.78
813.339	63.44
813.512	67.66
813.686	69.87
813.86	68.15
814.033	62.69
814.207	62.43
814.38	64.31
814.554	70.25
814.727	70.25
814.9	70.8
815.074	67.18
815.247	72.34
815.421	72.23
815.594	75.94
815.767	79.09
815.941	77.01
816.114	75.46
816.287	69.67
816.46	57.39
816.634	55.31
816.807	53.4
816.98	51.6
817.153	50.37
817.327	47.16
817.5	39.6
817.673	35.82
817.846	39
818.019	40.62
818.192	41.49
818.365	48.63
818.538	45.4
818.711	47.49
818.884	50.62
819.057	51.25
819.23	57.62
819.403	59.22
819.576	61.05
819.749	60.53
819.922	59.98
820.095	60.65
820.268	60.71
820.441	59.93
820.614	57.94
820.786	55.18
820.959	53.78
821.132	50.39
821.305	50.72
821.477	51.38
821.65	52.97
821.823	53.49
821.996	53.43
822.168	51.7
822.341	52.23
822.514	52.25
822.686	51.94
822.859	51.8
823.031	51.86
823.204	52.25
823.376	51.61
823.549	50.7
823.722	49.87
823.894	49.45
824.067	49.89
824.239	50.44
824.411	50.43
824.584	50.77
824.756	50.54
824.929	50.54
825.101	50.36
825.273	50.19
825.446	51.24
825.618	51.26
825.79	49.91
825.963	49.69
826.135	48.7
826.307	48.45
826.479	49.53
826.652	51.24
826.824	52.05
826.996	52.53
827.168	55.8
827.34	55.35
827.512	56.13
827.684	57.25
827.856	55.57
828.029	55.42
828.201	56.42
828.373	57.3
828.545	55.68
828.717	54.56
828.889	53.62
829.061	49.6
829.232	46.83
829.404	44.6
829.576	46.76
829.748	48.01
829.92	48.85
830.092	48.69
830.264	49.26
830.436	47.7
830.607	47.74
830.779	45.52
830.951	45.07
831.123	50.3
831.294	52.92
831.466	47.62
831.638	47.83
831.809	47.93
831.981	47.48
832.153	43.43
832.324	47.38
832.496	48.68
832.667	51.85
832.839	53.46
833.011	53.14
833.182	55.15
833.354	53.86
833.525	55.15
833.697	52.77
833.868	51.28
834.039	54.51
834.211	55.16
834.382	58.33
834.554	57.6
834.725	55.63
834.896	53.79
835.068	52.5
835.239	52.78
835.41	54.37
835.581	55.59
835.753	58.85
835.924	57.02
836.095	56.6
836.266	52.95
836.438	54.73
836.609	59.99
836.78	63.77
836.951	65.61
837.122	69.55
837.293	72.39
837.464	73.42
837.635	68.98
837.806	63.62
837.977	66.41
838.148	66.36
838.319	66.23
838.49	65.63
838.661	64.74
838.832	69.93
839.003	67.34
839.174	65.6
839.345	66.28
839.516	72.09
839.687	79.98
839.857	76.06
840.028	84.5
840.199	76.72
840.37	76.24
840.54	72.52
840.711	58.68
840.882	64.86
841.053	61.02
841.223	58.67
841.394	55.09
841.564	52.72
841.735	53.87
841.906	46.64
842.076	49.15
842.247	47.7
842.417	46.35
842.588	54.19
842.758	47.26
842.929	42.17
843.099	48.14
843.27	48.2
843.44	51.9
843.611	55.58
843.781	62.21
843.951	58.95
844.122	58.26
844.292	61.37
844.462	63.67
844.633	66.96
844.803	77.89
844.973	76.83
845.144	71.05
845.314	65.74
845.484	68.51
845.654	54.48
845.824	67.67
845.995	55.65
846.165	58.65
846.335	51.31
846.505	48.96
846.675	30.98
846.845	39
847.015	43.29
847.185	51.4
847.355	34.93
847.525	48.12
847.695	46.57
847.865	75.28
848.035	69.37
848.205	81.93
848.375	75.03
848.545	73.47
848.715	64.16
848.884	61.28
849.054	59.36
849.224	64.33
849.394	67.95
849.564	56.65
849.733	56.77
849.903	50.4
850.073	44
850.243	55.02
850.412	60.73
850.582	58.18
850.752	58.27
850.921	64.24
851.091	70.31
851.26	74.99
851.43	72.66
851.599	71.86
851.769	72.83
851.939	80.83
852.108	74.56
852.278	69.19
852.447	77.08
852.616	71.99
852.786	66
852.955	52.17
853.125	43.79
853.294	51.11
853.463	41.17
853.633	43.65
853.802	35.87
853.971	47.39
854.141	55.38
854.31	54.96
854.479	69.07
854.648	57.53
854.818	53.75
854.987	59.42
855.156	50.74
855.325	57.5
855.494	52.15
855.663	56.43
855.832	46.96
856.001	56.1
856.171	51.88
856.34	36.53
856.509	45.5
856.678	54.88
856.847	52.87
857.016	63.23
857.185	62.07
857.353	77.03
857.522	81.15
857.691	93.05
857.86	78.31
858.029	73.75
858.198	80.5
858.367	91.31
858.535	88.24
858.704	98.22
858.873	86.18
859.042	87.77
859.21	85.84
859.379	69.41
859.548	58.66
859.717	66.19
859.885	72.71
860.054	84.78
860.222	89.71
860.391	95
860.56	84.63
860.728	95.6
860.897	90.91
861.065	106.72
861.234	128.67
861.402	163.03
861.571	146.99
861.739	139.58
861.908	132.17
862.076	143.19
862.244	91.27
862.413	93.51
862.581	90.23
862.749	131.75
862.918	73.2
863.086	97.72
863.254	-28.61
863.423	24.57
863.591	143.5
863.759	136.83
863.927	93.65
864.096	88.74
864.264	87.92
864.432	80.42
864.6	88.27
864.768	114.97
864.936	115.74
865.104	120.21
865.272	159.16
865.44	200.8
865.608	201.26
865.776	227.91
865.944	258.09
866.112	192.49
866.28	199.33
866.448	189.73
866.616	142.59
866.784	108.61
866.952	113.76
867.12	97.77
867.288	79.75
867.455	85.28
867.623	85.01
867.791	79.96
867.959	91.82
868.127	99.46
868.294	106.75
868.462	96.71
868.63	115.01
868.797	98.7
868.965	114.22
869.133	109.71
869.3	99.79
869.468	86.01
869.636	84.94
869.803	80.71
869.971	73.57
870.138	54.73
870.306	51.66
870.473	37.14
870.641	29.52
870.808	16.55
870.975	51.77
871.143	55.61
871.31	77.34
871.478	78.26
871.645	65.55
871.812	46.47
871.98	59.39
872.147	67.34
872.314	62.9
872.482	73.14
872.649	67.33
872.816	37.32
872.983	30.23
873.15	17.63
873.318	26.34
873.485	38.5
873.652	46.62
873.819	41.52
873.986	65.07
874.153	90.06
874.32	92.55
874.487	117.84
874.654	140.04
874.821	145.33
874.988	135.74
875.155	133.76
875.322	114.44
875.489	121.71
875.656	117.27
875.823	99.49
875.99	97.09
876.157	102.41
876.324	89.1
876.49	85.39
876.657	80.72
876.824	96.74
876.991	98.65
877.157	76.8
877.324	80.64
877.491	78.38
877.658	71.47
877.824	69.28
877.991	52.42
878.157	58
878.324	59.54
878.491	56.74
878.657	43.98
878.824	69
878.99	78.89
879.157	92.51
879.323	93.15
879.49	84.82
879.656	70.22
879.823	60.74
879.989	82.26
880.156	70.17
880.322	76.51
880.488	70.14
880.655	54.54
880.821	56.54
880.987	42.28
881.154	49.77
881.32	47.42
881.486	53.18
881.652	50.65
881.819	44.49
881.985	45.82
882.151	43.77
882.317	44.74
882.483	42.69
882.649	44.56
882.816	46.28
882.982	45.16
883.148	47.91
883.314	45.89
883.48	46.88
883.646	49.19
883.812	52.26
883.978	54.48
884.144	55.45
884.31	58.36
884.476	58.4
884.642	59.65
884.807	63.69
884.973	62.19
885.139	63.86
885.305	66.08
885.471	65.27
885.637	59.94
885.802	61.19
885.968	61.95
886.134	65.83
886.3	60.12
886.465	64.47
886.631	60.55
886.797	62.5
886.962	60.36
887.128	61.45
887.293	66.22
887.459	67.8
887.625	59.14
887.79	54.91
887.956	45.07
888.121	55.96
888.287	46.2
888.452	40.46
888.618	45.89
888.783	41.72
