Data from LC_245_Reflection_4.txt Node
Date: Thu Nov 19 22:49:12 EST 2015
User: robert
Spectrometer: USB4E03001
Autoset integration time: false
Trigger mode: 4
Integration Time (sec): 1.000000E-1
Scans to average: 15
Electric dark correction enabled: true
Nonlinearity correction enabled: false
Boxcar width: 5
Stray light correction enabled: false
XAxis mode: Wavelengths
Stop averaging: false
Number of Pixels in Spectrum: 3648
>>>>>Begin Spectral Data<<<<<
177.566	-30.42
177.785	-6.91
178.005	36.42
178.225	27.42
178.445	17.78
178.665	-1.96
178.885	56.06
179.105	505.36
179.324	110.13
179.544	21.11
179.764	57.49
179.984	40.6
180.204	120.61
180.423	63.79
180.643	95.99
180.863	88.67
181.083	133.72
181.302	78.71
181.522	50.55
181.742	55.82
181.961	77.17
182.181	68.14
182.401	99.41
182.621	67.14
182.84	-13.22
183.06	-70.41
183.279	-50.96
183.499	-34.37
183.719	-212.03
183.938	-194.28
184.158	-19.45
184.377	157.48
184.597	50.87
184.816	311.32
185.036	86.62
185.256	-17.22
185.475	6.56
185.695	44.41
185.914	64.78
186.134	38.17
186.353	25.98
186.572	45.31
186.792	9.22
187.011	471.89
187.231	477
187.45	302.24
187.67	39.98
187.889	-14.62
188.108	50.63
188.328	41.88
188.547	92.54
188.766	144.82
188.986	108.65
189.205	-132.35
189.424	95.93
189.644	111.18
189.863	78.03
190.082	59.1
190.302	62.77
190.521	76.1
190.74	78.85
190.959	109.35
191.178	83.6
191.398	64.26
191.617	50.97
191.836	-75.77
192.055	-52.13
192.274	-15.74
192.494	-0.99
192.713	21.11
192.932	40.65
193.151	41.6
193.37	18.23
193.589	42.25
193.808	49.77
194.027	39.96
194.246	45.67
194.465	59.86
194.685	37.72
194.904	42.45
195.123	39.91
195.342	27.73
195.561	31.34
195.78	51.1
195.999	39.37
196.218	42.04
196.436	67.11
196.655	72.06
196.874	79.77
197.093	95.73
197.312	99.94
197.531	105.65
197.75	138.93
197.969	136.15
198.188	-146.65
198.407	-46.93
198.625	-13.69
198.844	71.54
199.063	236.64
199.282	60.17
199.501	38.28
199.719	104.91
199.938	60.67
200.157	45.78
200.376	96.84
200.594	176.49
200.813	349.01
201.032	643.62
201.251	833.73
201.469	600.61
201.688	185.41
201.907	291.47
202.125	1133.38
202.344	250.89
202.563	296.88
202.781	440.24
203	332.36
203.218	259.82
203.437	267.3
203.656	289.63
203.874	414.33
204.093	579.93
204.311	171.34
204.53	140.18
204.748	160.26
204.967	140.3
205.185	107.11
205.404	114.07
205.622	145.55
205.841	100.79
206.059	63.2
206.278	38
206.496	37.91
206.715	133.09
206.933	203.38
207.151	192.66
207.37	168.57
207.588	168.78
207.806	147.9
208.025	87.38
208.243	130.85
208.461	94.11
208.68	-46.1
208.898	64.12
209.116	-22.66
209.335	-74.2
209.553	-790.18
209.771	1304.2
209.989	-239.02
210.208	346.07
210.426	319.18
210.644	22.81
210.862	50.65
211.081	67.17
211.299	86.44
211.517	114.79
211.735	97.79
211.953	64.78
212.171	46.85
212.39	61.69
212.608	81.11
212.826	83.76
213.044	94.25
213.262	88.68
213.48	86.21
213.698	61.42
213.916	64.92
214.134	4.55
214.352	25.67
214.57	135.66
214.788	428.96
215.006	364.17
215.224	261.09
215.442	408.22
215.66	161.35
215.878	282.15
216.096	215.13
216.314	179.51
216.532	257.15
216.75	723.32
216.968	-8.73
217.185	204.58
217.403	902.55
217.621	894.78
217.839	-113.18
218.057	-22.83
218.275	43.88
218.492	32.16
218.71	22.85
218.928	19.45
219.146	-17.02
219.363	14.64
219.581	7.91
219.799	-6.89
220.017	-20.09
220.234	-0.17
220.452	5.6
220.67	-17.94
220.887	-6.46
221.105	7.5
221.323	12.43
221.54	36.78
221.758	37.87
221.976	28.09
222.193	34.26
222.411	32.42
222.629	33.6
222.846	22.06
223.064	18.85
223.281	31.94
223.499	36.43
223.716	44.72
223.934	22.27
224.151	7.98
224.369	12.06
224.586	5.24
224.804	10.75
225.021	18.76
225.239	20.38
225.456	9.76
225.674	3.86
225.891	7.86
226.108	-2.07
226.326	-7.1
226.543	4.6
226.76	-13.15
226.978	-1.55
227.195	-3.78
227.413	-13.53
227.63	-13.96
227.847	-8.37
228.064	-8.57
228.282	-6.29
228.499	-4.28
228.716	1.03
228.934	-2.41
229.151	1.09
229.368	-1.44
229.585	-0.62
229.802	-1.63
230.02	-2.43
230.237	-3.16
230.454	-5.2
230.671	-7.74
230.888	-7.37
231.105	-13.25
231.323	-11.61
231.54	-14.34
231.757	-11.35
231.974	-10.93
232.191	-9.42
232.408	-9.66
232.625	-7.29
232.842	-0.87
233.059	4.18
233.276	7.19
233.493	11.65
233.71	14.69
233.927	17.35
234.144	14.33
234.361	11.26
234.578	14.92
234.795	14.51
235.012	12.83
235.229	8.7
235.446	7.65
235.663	-1.11
235.879	-5.31
236.096	-14.72
236.313	-19.83
236.53	-15.46
236.747	-12.62
236.964	-13.69
237.181	-18.72
237.397	-21.16
237.614	-18.53
237.831	-18.11
238.048	-12.98
238.264	-12.58
238.481	-2.69
238.698	-0.45
238.915	3.55
239.131	-3.78
239.348	-2.41
239.565	5.97
239.781	8.52
239.998	6.58
240.215	3.42
240.431	3.79
240.648	6.32
240.865	2.73
241.081	1.47
241.298	0.74
241.514	2.11
241.731	0.65
241.947	0.83
242.164	-0.09
242.38	1.35
242.597	1.7
242.814	1.63
243.03	0.7
243.246	1.77
243.463	1.45
243.679	0.39
243.896	1.41
244.112	0.8
244.329	-0.86
244.545	-0.52
244.762	-2.28
244.978	-2.81
245.194	-2.98
245.411	-2.32
245.627	-3.6
245.843	-3.28
246.06	-1.23
246.276	-2.31
246.492	-1.16
246.709	-0.33
246.925	-1.06
247.141	-1.17
247.357	-0.97
247.574	-0.93
247.79	-1.11
248.006	-0.46
248.222	-0.7
248.439	-2.44
248.655	-2.22
248.871	-2.49
249.087	-4.01
249.303	-3.9
249.519	-4.09
249.736	-3.72
249.952	-4.45
250.168	-5.11
250.384	-6.76
250.6	-5.04
250.816	-2.74
251.032	-4.78
251.248	-4.42
251.464	-3.28
251.68	-2.27
251.896	-2.7
252.112	-3.74
252.328	-3.23
252.544	-2.57
252.76	-1.88
252.976	-1.65
253.192	-1.72
253.408	-0.67
253.624	-1
253.84	-0.94
254.056	-1.45
254.272	-0.26
254.487	-1.77
254.703	-1.54
254.919	-2.57
255.135	-2.5
255.351	-3.26
255.567	-3.68
255.782	-3.89
255.998	-1.99
256.214	-1.22
256.43	-2.19
256.646	-1.09
256.861	1.28
257.077	1.93
257.293	2.95
257.508	4.11
257.724	4.57
257.94	4.59
258.155	5.4
258.371	4.8
258.587	3.4
258.802	3.4
259.018	2.72
259.234	2.2
259.449	2.41
259.665	1.82
259.88	1.38
260.096	1.58
260.312	0.75
260.527	0.21
260.743	-0.52
260.958	-0.43
261.174	-0.54
261.389	-0.59
261.605	0.12
261.82	-1.35
262.036	-1.85
262.251	-2.96
262.466	-3.84
262.682	-4.34
262.897	-4.2
263.113	-4.76
263.328	-2.77
263.543	-2.8
263.759	-2.77
263.974	-3.33
264.189	-1.11
264.405	0.55
264.62	1.76
264.835	1.12
265.051	2.24
265.266	1.38
265.481	2.78
265.696	0.54
265.912	-0.38
266.127	-0.53
266.342	-1.62
266.557	-1.87
266.773	-2.6
266.988	-3.36
267.203	-2.7
267.418	-2.7
267.633	-2.61
267.848	-3.53
268.064	-3.11
268.279	-1.94
268.494	-1.22
268.709	-1.69
268.924	-3.37
269.139	-2.48
269.354	-3.09
269.569	-5.07
269.784	-4.52
269.999	-4.44
270.214	-2.72
270.429	-2.48
270.644	-3.71
270.859	-4.96
271.074	-5.82
271.289	-3.72
271.504	-4.16
271.719	-2.27
271.934	-0.77
272.149	-0.7
272.363	-0.4
272.578	-0.47
272.793	-0.03
273.008	-0.33
273.223	-0.04
273.438	1.91
273.653	1.4
273.867	1.01
274.082	0.4
274.297	-0.8
274.512	-1.08
274.726	-0.69
274.941	-1.27
275.156	-2.93
275.371	-1.85
275.585	-1.9
275.8	-3.63
276.015	-4.27
276.229	-3.33
276.444	-3.16
276.659	-2.06
276.873	-2.27
277.088	-1.46
277.302	-1.84
277.517	-0.91
277.732	-0.32
277.946	-0.2
278.161	0.72
278.375	1.34
278.59	0.67
278.804	0.29
279.019	1.01
279.233	0.93
279.448	1.08
279.662	1.33
279.877	1.13
280.091	0.39
280.306	0.18
280.52	0.75
280.735	0.87
280.949	0.63
281.163	1.01
281.378	0.63
281.592	0.39
281.806	0.33
282.021	0.78
282.235	0.56
282.449	0.59
282.664	1.32
282.878	0.33
283.092	-0.34
283.307	1.22
283.521	1.1
283.735	0.48
283.949	0.47
284.164	-0.73
284.378	-0.96
284.592	-1.43
284.806	-1.72
285.02	-2.66
285.234	-2.22
285.449	-2.39
285.663	-2.74
285.877	-2.5
286.091	-1.9
286.305	-1.93
286.519	-1.6
286.733	-1.64
286.947	-1.09
287.161	-1.29
287.375	-0.21
287.589	-0.26
287.803	0.13
288.017	0.11
288.231	-0.28
288.445	-1.03
288.659	0.09
288.873	-0.38
289.087	-1.45
289.301	-1.52
289.515	-1.5
289.729	-2.99
289.943	-2.76
290.157	-2.22
290.371	-2.28
290.584	-2.65
290.798	-2.97
291.012	-4.02
291.226	-4.02
291.44	-2.41
291.654	-3.03
291.867	-2.09
292.081	-1.77
292.295	-1.76
292.509	-2.37
292.722	-2.55
292.936	-2.64
293.15	-2.9
293.364	-1.39
293.577	-0.37
293.791	-2.46
294.005	-1.64
294.218	-1.89
294.432	-1.62
294.645	-1.99
294.859	-2.62
295.073	-3.79
295.286	-3.01
295.5	-2.05
295.713	-3.24
295.927	-3.19
296.14	-2.27
296.354	-3.02
296.568	-2.7
296.781	-2.6
296.994	-2.23
297.208	-1.69
297.421	-0.37
297.635	0.03
297.848	-0.23
298.062	0.77
298.275	1.08
298.489	1.05
298.702	1.63
298.915	1.47
299.129	1.76
299.342	1.72
299.555	1.09
299.769	-0.2
299.982	-1.25
300.195	-1.2
300.409	-2.21
300.622	-3.18
300.835	-2.85
301.048	-3.29
301.262	-3.56
301.475	-4.19
301.688	-4.5
301.901	-4.11
302.115	-3.3
302.328	-2.14
302.541	-2.77
302.754	-2.83
302.967	-2.34
303.18	-2.55
303.393	-1.72
303.607	-1.47
303.82	-1.43
304.033	-0.54
304.246	0.48
304.459	0.15
304.672	0.27
304.885	1.85
305.098	2.11
305.311	1.5
305.524	0.87
305.737	0.17
305.95	-0.51
306.163	-0.97
306.376	-1.48
306.589	-2.53
306.802	-2.88
307.015	-2.99
307.228	-3.59
307.44	-3.69
307.653	-2.76
307.866	-1.24
308.079	0.05
308.292	1.14
308.505	2.04
308.718	1.22
308.93	1.02
309.143	1.53
309.356	1.04
309.569	0.87
309.781	1.19
309.994	1.17
310.207	-0.24
310.42	-0.51
310.632	-1.03
310.845	-1.21
311.058	-0.13
311.27	0.33
311.483	0.27
311.696	-0.3
311.908	-0.19
312.121	-0.89
312.333	-1.64
312.546	-1.1
312.759	-1.69
312.971	-2.17
313.184	-2.37
313.396	-2.91
313.609	-3.33
313.821	-3.79
314.034	-2.65
314.246	-4.01
314.459	-3.14
314.671	-2.83
314.884	-2.9
315.096	-2.79
315.309	-1.43
315.521	-1.3
315.733	-1.8
315.946	-0.84
316.158	-0.49
316.371	-1.61
316.583	-0.93
316.795	-2.7
317.008	-2.94
317.22	-2.57
317.432	-2.48
317.644	-2.47
317.857	-3.25
318.069	-3.28
318.281	-4.77
318.494	-4.18
318.706	-3.95
318.918	-4.73
319.13	-3.37
319.342	-4.35
319.555	-5.99
319.767	-6.36
319.979	-7.22
320.191	-6.78
320.403	-6.2
320.615	-5.71
320.827	-6.85
321.039	-8.45
321.252	-6.49
321.464	-6.05
321.676	-5.76
321.888	-4.74
322.1	-4.64
322.312	-4.46
322.524	-2.93
322.736	-3.03
322.948	-1.13
323.16	-0.53
323.372	-0.23
323.584	-0.62
323.796	-1.14
324.007	-0.19
324.219	0.22
324.431	0.49
324.643	-0.13
324.855	-1.21
325.067	-1.21
325.279	-2.68
325.491	-2.32
325.702	-1.14
325.914	-2.12
326.126	-0.94
326.338	-1.06
326.55	-0.89
326.761	-1
326.973	-0.06
327.185	-0.41
327.396	-0.42
327.608	-0.27
327.82	-1.17
328.032	-2
328.243	-0.85
328.455	-2.27
328.666	-1.83
328.878	-2.65
329.09	-1.98
329.301	-1.77
329.513	-1.32
329.725	-1.57
329.936	-1.26
330.148	-0.68
330.359	0.17
330.571	-0.21
330.782	0.06
330.994	0.99
331.205	0.77
331.417	0.3
331.628	-0.66
331.84	-0.04
332.051	-0.2
332.262	-0.05
332.474	0.86
332.685	0.92
332.897	1.45
333.108	1.27
333.319	0.52
333.531	1.46
333.742	1.14
333.953	1.43
334.165	1.61
334.376	2.11
334.587	1.75
334.799	0.63
335.01	-0.12
335.221	-0.18
335.432	0.49
335.644	-0.83
335.855	-1.46
336.066	-0.03
336.277	-0.58
336.488	-1.19
336.7	-1.71
336.911	-2.02
337.122	-1.66
337.333	-1.07
337.544	-1.33
337.755	-1.54
337.966	-0.69
338.177	-0.4
338.388	-1.42
338.599	-0.95
338.811	-0.51
339.022	-0.99
339.233	-1.96
339.444	-1.89
339.655	-1.85
339.866	-1.9
340.076	-2.33
340.287	-2.67
340.498	-3.28
340.709	-3.52
340.92	-4.09
341.131	-4.81
341.342	-4.07
341.553	-2.39
341.764	-2.89
341.975	-3.05
342.185	-3.43
342.396	-3.01
342.607	-2.62
342.818	-2.07
343.029	-1.68
343.239	-1.45
343.45	-1.31
343.661	-1.47
343.872	-1.38
344.082	-0.8
344.293	-0.45
344.504	-0.05
344.714	-0.69
344.925	-0.56
345.136	-0.88
345.346	-2.04
345.557	-1.93
345.768	-1.71
345.978	-1.49
346.189	-3.07
346.399	-3.89
346.61	-4.41
346.821	-4.33
347.031	-3.63
347.242	-3.38
347.452	-2.88
347.663	-1.73
347.873	-0.88
348.084	-0.34
348.294	-0.42
348.504	0.88
348.715	2.17
348.925	2.63
349.136	2.59
349.346	2.03
349.557	2.14
349.767	1.89
349.977	2.15
350.188	1.24
350.398	0.25
350.608	1.3
350.819	0.97
351.029	0.35
351.239	0.49
351.449	-0.13
351.66	-0.09
351.87	-0.74
352.08	-0.74
352.29	-0.17
352.501	-0.07
352.711	0.62
352.921	0.64
353.131	-0.01
353.341	-0.27
353.552	-0.53
353.762	-0.37
353.972	0.25
354.182	0.84
354.392	1.09
354.602	0.18
354.812	0.14
355.022	-0.63
355.232	-0.95
355.442	0.01
355.652	-0.12
355.862	0.43
356.072	0.77
356.282	1.34
356.492	1.05
356.702	0.65
356.912	0.62
357.122	0.84
357.332	1.51
357.542	1
357.752	0.71
357.962	1.37
358.171	0.87
358.381	1.21
358.591	0.12
358.801	-0.19
359.011	-0.02
359.221	-0.25
359.43	-0.45
359.64	-0.94
359.85	-0.97
360.06	-0.72
360.269	-0.76
360.479	-1
360.689	-1.53
360.899	-1.25
361.108	-1.37
361.318	-1.13
361.528	-0.95
361.737	-0.62
361.947	-0.41
362.156	-0.58
362.366	-0.49
362.576	-0.45
362.785	-0.39
362.995	-0.1
363.204	0.2
363.414	0.46
363.623	0.01
363.833	0.34
364.042	0.02
364.252	-0.11
364.461	-0.24
364.671	-0.39
364.88	-0.34
365.09	-0.32
365.299	-0.7
365.509	-0.72
365.718	-1.21
365.927	-0.97
366.137	-1.51
366.346	-1.64
366.555	-1.55
366.765	-0.75
366.974	-0.94
367.183	-1.53
367.393	-1.33
367.602	-0.97
367.811	-0.7
368.021	0.14
368.23	-0.34
368.439	-0.59
368.648	-0.69
368.857	-0.5
369.067	-0.74
369.276	0.11
369.485	0.12
369.694	-0.57
369.903	-1.19
370.112	-1.89
370.321	-2.51
370.531	-1.86
370.74	-1.56
370.949	-1.14
371.158	-1.27
371.367	-1.43
371.576	-2.36
371.785	-2.32
371.994	-1.68
372.203	-1.55
372.412	-1.3
372.621	-1.15
372.83	-1.41
373.039	-1.18
373.248	-1.15
373.457	-1.07
373.666	-0.84
373.874	-0.31
374.083	-0.26
374.292	-0.48
374.501	-0.21
374.71	-0.3
374.919	-0.53
375.128	-0.24
375.336	-0.39
375.545	-0.4
375.754	-0.71
375.963	-0.62
376.171	-0.77
376.38	-0.83
376.589	-1.06
376.798	-1.52
377.006	-1.51
377.215	-1.04
377.424	-1.42
377.632	-1.34
377.841	-1.33
378.05	-0.72
378.258	-1.18
378.467	-1.22
378.675	-1.38
378.884	-0.88
379.093	-0.48
379.301	-0.56
379.51	-0.9
379.718	-0.76
379.927	-0.93
380.135	-0.63
380.344	-1.23
380.552	-0.87
380.761	-0.89
380.969	-0.74
381.177	-0.86
381.386	-0.95
381.594	-1.01
381.803	-0.95
382.011	-0.84
382.219	-0.5
382.428	-0.59
382.636	0.02
382.845	0.19
383.053	-0.21
383.261	-0.31
383.469	-0.36
383.678	-0.35
383.886	-0.2
384.094	-0.28
384.302	-0.02
384.511	-0.74
384.719	-0.89
384.927	-1.44
385.135	-1.46
385.343	-1.19
385.552	-0.75
385.76	-0.65
385.968	-0.53
386.176	-0.39
386.384	-0.44
386.592	-0.65
386.8	-0.02
387.008	-0.42
387.216	-0.43
387.424	-0.76
387.633	-0.35
387.841	-0.87
388.049	-1.03
388.257	-0.87
388.465	-1.08
388.672	-0.84
388.88	-0.85
389.088	-0.86
389.296	-0.41
389.504	-0.03
389.712	0.16
389.92	-0.42
390.128	-0.27
390.336	-0.29
390.544	-0.25
390.751	-0
390.959	-0.11
391.167	0.13
391.375	-0.06
391.583	-0.5
391.79	-0.92
391.998	-0.89
392.206	-0.45
392.414	-0.18
392.621	-0.03
392.829	-0.3
393.037	-0.49
393.244	-0.15
393.452	-0.39
393.66	-0.56
393.867	-0.2
394.075	0.1
394.283	-0.03
394.49	-0.56
394.698	-0.7
394.905	-0.86
395.113	-0.77
395.32	-0.53
395.528	-0.81
395.735	-0.62
395.943	-0.31
396.15	-0.44
396.358	-0.57
396.565	-0.61
396.773	-0.54
396.98	-0.48
397.188	-0.35
397.395	-0.51
397.602	-0.74
397.81	-0.91
398.017	-1.13
398.225	-1.2
398.432	-1.27
398.639	-1.5
398.847	-1.56
399.054	-1.58
399.261	-1.62
399.468	-1.72
399.676	-1.82
399.883	-1.71
400.09	-1.8
400.297	-1.34
400.505	-1.46
400.712	-1.1
400.919	-0.85
401.126	-0.53
401.333	-0.43
401.54	-0.36
401.748	0.03
401.955	0.26
402.162	0.13
402.369	0.44
402.576	0.02
402.783	0.23
402.99	0.16
403.197	0.37
403.404	0.14
403.611	0.21
403.818	0
404.025	-0.24
404.232	-0.37
404.439	-0.16
404.646	-0.04
404.853	0.04
405.06	0.07
405.267	0.04
405.474	-0.17
405.681	-0.01
405.887	0.31
406.094	0.27
406.301	0.11
406.508	0.3
406.715	0.07
406.922	-0.34
407.128	-0.44
407.335	-0.62
407.542	-0.64
407.749	-0.51
407.955	-0.54
408.162	-0.73
408.369	-0.68
408.575	-0.35
408.782	-0.67
408.989	-0.54
409.195	-0.43
409.402	-0.49
409.609	-0.65
409.815	-0.83
410.022	-1.01
410.228	-0.97
410.435	-0.8
410.642	-0.78
410.848	-1.09
411.055	-0.92
411.261	-0.71
411.468	-0.56
411.674	-0.39
411.881	-0.18
412.087	-0.08
412.294	0.13
412.5	-0.19
412.706	-0.24
412.913	-0.29
413.119	-0.38
413.326	-0.54
413.532	-0.87
413.738	-0.96
413.945	-1.01
414.151	-0.73
414.357	-0.81
414.564	-0.95
414.77	-0.84
414.976	-0.89
415.182	-0.91
415.389	-0.66
415.595	-0.52
415.801	-0.59
416.007	-0.52
416.214	-0.6
416.42	-0.87
416.626	-0.99
416.832	-0.66
417.038	-0.71
417.244	-0.75
417.45	-0.58
417.657	-0.65
417.863	-0.46
418.069	-0.24
418.275	-0.21
418.481	-0.07
418.687	-0.11
418.893	0.01
419.099	-0.21
419.305	-0
419.511	-0.08
419.717	-0.12
419.923	-0.13
420.129	-0.25
420.335	-0.38
420.541	-0.36
420.746	-0.53
420.952	-0.46
421.158	-0.5
421.364	-0.57
421.57	-0.68
421.776	-0.57
421.982	-0.5
422.187	-0.48
422.393	-0.6
422.599	-0.7
422.805	-0.81
423.01	-0.79
423.216	-0.88
423.422	-1
423.628	-0.93
423.833	-1.06
424.039	-1.13
424.245	-1.14
424.45	-1.08
424.656	-0.88
424.862	-0.81
425.067	-0.8
425.273	-0.71
425.478	-0.6
425.684	-0.31
425.889	-0.26
426.095	-0.16
426.301	-0.21
426.506	-0.17
426.712	-0.28
426.917	-0.39
427.123	-0.35
427.328	-0.53
427.533	-0.44
427.739	-0.38
427.944	-0.51
428.15	-0.61
428.355	-0.77
428.561	-0.8
428.766	-0.76
428.971	-0.66
429.177	-0.8
429.382	-0.81
429.587	-0.32
429.793	-0.54
429.998	-0.76
430.203	-0.75
430.408	-0.69
430.614	-0.43
430.819	-0.31
431.024	-0.41
431.229	-0.66
431.434	-0.59
431.64	-0.53
431.845	-0.64
432.05	-0.47
432.255	-0.43
432.46	-0.49
432.665	-0.52
432.87	-0.57
433.076	-0.58
433.281	-0.7
433.486	-0.44
433.691	-0.41
433.896	-0.52
434.101	-0.63
434.306	-0.64
434.511	-0.54
434.716	-0.43
434.921	-0.29
435.126	-0.01
435.331	0.12
435.535	0.22
435.74	0.13
435.945	0.3
436.15	0.28
436.355	0.54
436.56	0.49
436.765	0.51
436.97	0.38
437.174	0.2
437.379	0.12
437.584	-0.04
437.789	-0.09
437.993	-0.13
438.198	-0.23
438.403	-0.23
438.608	-0.44
438.812	-0.53
439.017	-0.59
439.222	-0.65
439.426	-0.53
439.631	-0.78
439.836	-0.67
440.04	-0.63
440.245	-0.58
440.45	-0.65
440.654	-0.57
440.859	-0.55
441.063	-0.42
441.268	-0.4
441.472	-0.3
441.677	-0.42
441.881	-0.28
442.086	-0.53
442.29	-0.62
442.495	-0.66
442.699	-0.59
442.904	-0.49
443.108	-0.44
443.312	-0.54
443.517	-0.73
443.721	-0.6
443.925	-0.51
444.13	-0.5
444.334	-0.41
444.538	-0.35
444.743	-0.33
444.947	-0.34
445.151	-0.49
445.356	-0.46
445.56	-0.37
445.764	-0.28
445.968	-0.32
446.173	-0.4
446.377	-0.44
446.581	-0.38
446.785	-0.38
446.989	-0.36
447.193	-0.38
447.398	-0.53
447.602	-0.6
447.806	-0.67
448.01	-0.69
448.214	-0.77
448.418	-0.82
448.622	-0.85
448.826	-0.79
449.03	-0.68
449.234	-0.75
449.438	-0.88
449.642	-0.6
449.846	-0.58
450.05	-0.53
450.254	-0.4
450.458	-0.5
450.662	-0.39
450.866	-0.44
451.069	-0.44
451.273	-0.48
451.477	-0.48
451.681	-0.37
451.885	-0.42
452.089	-0.33
452.292	-0.42
452.496	-0.49
452.7	-0.49
452.904	-0.6
453.107	-0.51
453.311	-0.5
453.515	-0.58
453.719	-0.48
453.922	-0.47
454.126	-0.53
454.33	-0.57
454.533	-0.62
454.737	-0.62
454.94	-0.54
455.144	-0.42
455.348	-0.39
455.551	-0.42
455.755	-0.41
455.958	-0.42
456.162	-0.37
456.365	-0.31
456.569	-0.31
456.772	-0.19
456.976	0.05
457.179	0.08
457.383	-0.02
457.586	-0.01
457.79	0.02
457.993	-0.04
458.196	-0.14
458.4	-0.06
458.603	-0.04
458.807	-0.1
459.01	-0.19
459.213	-0.34
459.417	-0.2
459.62	-0.15
459.823	-0.2
460.026	-0.28
460.23	-0.2
460.433	-0.23
460.636	-0.34
460.839	-0.36
461.042	-0.27
461.246	-0.11
461.449	-0.16
461.652	-0.34
461.855	-0.3
462.058	-0.28
462.261	-0.17
462.464	-0.13
462.668	-0.02
462.871	0.23
463.074	0.12
463.277	-0.21
463.48	-0.23
463.683	-0.14
463.886	-0.15
464.089	-0.25
464.292	-0.09
464.495	0.03
464.698	-0.1
464.901	-0.12
465.104	-0.07
465.306	0.03
465.509	0.33
465.712	0.29
465.915	0.19
466.118	0.25
466.321	0.25
466.524	0.05
466.726	-0.17
466.929	-0.15
467.132	-0.15
467.335	-0.36
467.538	-0.37
467.74	-0.5
467.943	-0.67
468.146	-0.56
468.348	-0.63
468.551	-0.63
468.754	-0.46
468.956	-0.22
469.159	-0.23
469.362	-0.28
469.564	-0.29
469.767	-0.24
469.969	-0.2
470.172	-0.03
470.375	-0.16
470.577	0.02
470.78	0.24
470.982	0.14
471.185	0.05
471.387	0.02
471.59	0.14
471.792	0.14
471.995	0.08
472.197	0.06
472.399	0.08
472.602	0.22
472.804	0.01
473.007	-0.25
473.209	-0.24
473.411	-0.23
473.614	-0.15
473.816	-0.24
474.018	-0.13
474.22	-0.08
474.423	-0.06
474.625	-0.17
474.827	-0.22
475.03	-0.21
475.232	-0.18
475.434	-0.01
475.636	-0.33
475.838	-0.38
476.04	-0.29
476.243	-0.34
476.445	-0.4
476.647	-0.4
476.849	-0.22
477.051	-0.18
477.253	-0.08
477.455	0.05
477.657	-0.18
477.859	-0
478.061	-0.16
478.263	-0.2
478.465	-0.28
478.667	-0.22
478.869	-0.1
479.071	-0.4
479.273	-0.5
479.475	-0.64
479.677	-0.74
479.879	-0.57
480.081	-0.56
480.283	-0.3
480.485	-0.29
480.686	-0.23
480.888	-0.21
481.09	-0.14
481.292	0.06
481.494	0.15
481.695	0.26
481.897	0.26
482.099	0.11
482.301	0.07
482.502	-0.03
482.704	-0.14
482.906	-0.17
483.107	-0.21
483.309	-0.31
483.511	-0.38
483.712	-0.47
483.914	-0.46
484.115	-0.47
484.317	-0.45
484.519	-0.44
484.72	-0.41
484.922	-0.4
485.123	-0.35
485.325	-0.33
485.526	-0.34
485.728	-0.24
485.929	-0.14
486.131	-0.16
486.332	-0.1
486.534	-0.08
486.735	-0.07
486.936	-0.06
487.138	-0.03
487.339	-0.11
487.541	-0.05
487.742	-0.02
487.943	-0.03
488.144	-0.07
488.346	0
488.547	0
488.748	0.05
488.95	0.07
489.151	0.09
489.352	0.11
489.553	0.26
489.755	0.17
489.956	0.26
490.157	0.25
490.358	0.26
490.559	0.25
490.76	0.26
490.961	0.27
491.163	0.2
491.364	0.19
491.565	0.23
491.766	0.16
491.967	0.23
492.168	0.21
492.369	0.22
492.57	0.21
492.771	0.23
492.972	0.18
493.173	0.18
493.374	0.31
493.575	0.42
493.776	0.44
493.976	0.45
494.177	0.48
494.378	0.53
494.579	0.55
494.78	0.75
494.981	0.74
495.182	0.81
495.382	0.65
495.583	0.57
495.784	0.51
495.985	0.54
496.185	0.41
496.386	0.43
496.587	0.37
496.788	0.31
496.988	0.32
497.189	0.3
497.39	0.43
497.59	0.62
497.791	0.61
497.992	0.57
498.192	0.52
498.393	0.72
498.593	0.73
498.794	0.86
498.994	0.93
499.195	0.96
499.395	0.92
499.596	0.89
499.796	0.75
499.997	0.66
500.197	0.65
500.398	0.84
500.598	0.66
500.799	0.7
500.999	0.5
501.199	0.44
501.4	0.35
501.6	0.38
501.801	0.23
502.001	0.36
502.201	0.47
502.402	0.54
502.602	0.37
502.802	0.57
503.002	0.6
503.203	0.66
503.403	0.66
503.603	0.65
503.803	0.63
504.003	0.74
504.204	0.59
504.404	0.53
504.604	0.43
504.804	0.58
505.004	0.62
505.204	0.57
505.404	0.51
505.604	0.64
505.804	0.69
506.005	0.74
506.205	0.66
506.405	0.7
506.605	0.93
506.805	1.01
507.005	0.86
507.204	0.73
507.404	0.61
507.604	0.68
507.804	0.62
508.004	0.74
508.204	0.76
508.404	0.88
508.604	0.97
508.804	0.81
509.003	0.9
509.203	0.88
509.403	0.84
509.603	0.9
509.803	0.98
510.002	0.84
510.202	0.58
510.402	0.55
510.602	0.44
510.801	0.34
511.001	0.31
511.201	0.16
511.4	0.17
511.6	0.2
511.8	0.17
511.999	0.04
512.199	0.27
512.398	0.32
512.598	0.28
512.797	0.31
512.997	0.26
513.197	0.27
513.396	0.36
513.596	0.4
513.795	0.34
513.994	0.42
514.194	0.63
514.393	0.46
514.593	0.62
514.792	0.69
514.992	0.58
515.191	0.82
515.39	0.84
515.59	0.88
515.789	0.85
515.988	0.9
516.188	0.85
516.387	0.66
516.586	0.76
516.786	0.7
516.985	0.61
517.184	0.58
517.383	0.49
517.582	0.48
517.782	0.35
517.981	0.31
518.18	0.21
518.379	0.18
518.578	0.18
518.777	0.11
518.976	0.06
519.176	0.18
519.375	0.29
519.574	0.28
519.773	0.36
519.972	0.48
520.171	0.54
520.37	0.71
520.569	0.85
520.768	0.98
520.967	1.08
521.166	1.25
521.365	1.22
521.564	1.17
521.762	1.12
521.961	1.05
522.16	1
522.359	1.09
522.558	1.09
522.757	0.97
522.956	0.94
523.154	0.86
523.353	0.7
523.552	0.66
523.751	0.66
523.949	0.68
524.148	0.67
524.347	0.68
524.546	0.56
524.744	0.68
524.943	0.72
525.142	0.6
525.34	0.59
525.539	0.58
525.737	0.57
525.936	0.65
526.135	0.69
526.333	0.67
526.532	0.63
526.73	0.64
526.929	0.42
527.127	0.34
527.326	0.26
527.524	0.28
527.723	0.23
527.921	0.18
528.12	0.07
528.318	-0.03
528.516	-0.08
528.715	-0.13
528.913	-0.11
529.112	-0.09
529.31	-0.11
529.508	-0.02
529.707	-0.06
529.905	0.01
530.103	0.09
530.301	0.15
530.5	0.22
530.698	0.36
530.896	0.52
531.094	0.53
531.293	0.59
531.491	0.72
531.689	0.72
531.887	0.78
532.085	0.7
532.283	0.6
532.481	0.6
532.68	0.66
532.878	0.69
533.076	0.6
533.274	0.6
533.472	0.48
533.67	0.43
533.868	0.38
534.066	0.36
534.264	0.4
534.462	0.5
534.66	0.59
534.858	0.56
535.056	0.52
535.253	0.5
535.451	0.53
535.649	0.74
535.847	0.82
536.045	0.9
536.243	1.05
536.441	1.12
536.638	1.14
536.836	1.13
537.034	1.18
537.232	1.24
537.43	1.43
537.627	1.44
537.825	1.56
538.023	1.6
538.22	1.74
538.418	1.69
538.616	1.73
538.813	1.73
539.011	1.81
539.209	2.04
539.406	2.09
539.604	2.13
539.801	2.27
539.999	2.16
540.196	2.1
540.394	1.95
540.591	1.94
540.789	1.89
540.986	1.91
541.184	1.88
541.381	1.84
541.579	1.78
541.776	1.73
541.974	1.72
542.171	1.74
542.368	1.85
542.566	1.98
542.763	2.04
542.96	2.15
543.158	2.3
543.355	2.45
543.552	2.59
543.75	2.77
543.947	3.01
544.144	3.17
544.341	3.48
544.539	3.65
544.736	3.91
544.933	4.13
545.13	4.41
545.327	4.54
545.524	4.7
545.722	4.71
545.919	4.84
546.116	4.82
546.313	4.87
546.51	4.72
546.707	4.64
546.904	4.53
547.101	4.54
547.298	4.39
547.495	4.21
547.692	4.11
547.889	4.03
548.086	3.99
548.283	4.01
548.48	3.93
548.677	3.99
548.874	4.04
549.07	4.16
549.267	3.99
549.464	4.13
549.661	4.13
549.858	4.21
550.055	4.16
550.251	4.17
550.448	3.96
550.645	4.14
550.842	3.99
551.038	3.76
551.235	3.64
551.432	3.76
551.628	3.48
551.825	3.47
552.022	3.29
552.218	3.3
552.415	3.25
552.612	3.1
552.808	2.81
553.005	2.68
553.201	2.75
553.398	2.72
553.594	2.44
553.791	2.47
553.987	2.65
554.184	2.63
554.38	2.66
554.577	2.47
554.773	2.72
554.97	2.9
555.166	3.16
555.362	3.05
555.559	3.13
555.755	3.24
555.952	3.31
556.148	3.15
556.344	3.22
556.541	3.2
556.737	3.08
556.933	2.97
557.129	2.77
557.326	2.58
557.522	2.86
557.718	2.78
557.914	2.96
558.11	2.82
558.307	2.84
558.503	2.75
558.699	2.72
558.895	2.9
559.091	2.83
559.287	2.99
559.483	3.16
559.679	3.18
559.876	3.15
560.072	3.04
560.268	3.14
560.464	3.02
560.66	3.05
560.856	3.14
561.052	3.17
561.247	3.41
561.443	3.04
561.639	2.7
561.835	2.68
562.031	2.71
562.227	2.68
562.423	2.79
562.619	2.94
562.815	3.02
563.01	3.08
563.206	3.15
563.402	3.02
563.598	3.38
563.793	3.57
563.989	3.55
564.185	3.28
564.381	3.35
564.576	3.25
564.772	3.32
564.968	3.11
565.163	2.99
565.359	2.95
565.555	2.8
565.75	2.58
565.946	2.53
566.141	2.42
566.337	2.49
566.532	2.58
566.728	2.53
566.923	2.26
567.119	2.38
567.314	2.47
567.51	2.43
567.705	2.49
567.901	2.61
568.096	2.73
568.292	2.75
568.487	2.69
568.682	2.6
568.878	2.62
569.073	2.77
569.268	2.93
569.464	2.87
569.659	2.82
569.854	2.94
570.05	2.97
570.245	2.86
570.44	2.92
570.635	3.1
570.831	3.06
571.026	3.06
571.221	3
571.416	2.82
571.611	2.84
571.806	2.74
572.002	2.74
572.197	2.69
572.392	2.79
572.587	2.79
572.782	2.74
572.977	2.66
573.172	2.79
573.367	2.9
573.562	3.06
573.757	3.02
573.952	3.06
574.147	3.02
574.342	3.12
574.537	3.17
574.732	3.22
574.927	3.12
575.121	3.26
575.316	3.3
575.511	3.25
575.706	3.12
575.901	3.14
576.096	3.4
576.29	3.48
576.485	3.51
576.68	3.42
576.875	3.48
577.069	3.67
577.264	3.77
577.459	3.69
577.654	3.88
577.848	4.08
578.043	4.44
578.238	4.46
578.432	4.48
578.627	4.77
578.821	5.11
579.016	5.07
579.21	5.33
579.405	5.6
579.6	5.79
579.794	5.96
579.989	5.92
580.183	5.77
580.378	5.71
580.572	5.83
580.766	5.49
580.961	5.26
581.155	5.42
581.35	5.23
581.544	5.02
581.738	4.93
581.933	4.97
582.127	4.94
582.321	5.02
582.516	5.48
582.71	5.71
582.904	5.87
583.099	6.06
583.293	6.07
583.487	6.11
583.681	6.5
583.875	6.66
584.07	6.4
584.264	6.46
584.458	6.42
584.652	6.23
584.846	6.11
585.04	6.23
585.234	6.25
585.428	6.33
585.623	6.46
585.817	6
586.011	5.98
586.205	6.11
586.399	6.35
586.593	6.56
586.787	6.73
586.981	6.78
587.174	6.77
587.368	6.77
587.562	6.48
587.756	6.52
587.95	6.52
588.144	6.3
588.338	6.32
588.532	6.17
588.725	5.8
588.919	5.44
589.113	5.34
589.307	5.08
589.501	4.85
589.694	5.03
589.888	4.91
590.082	5.14
590.275	5.11
590.469	4.77
590.663	4.98
590.856	5.1
591.05	5.19
591.244	5.34
591.437	5.7
591.631	6.01
591.824	6.25
592.018	6.09
592.212	6.01
592.405	6.33
592.599	6.86
592.792	6.77
592.986	6.9
593.179	7.05
593.372	7.11
593.566	7
593.759	6.69
593.953	6.54
594.146	6.72
594.339	6.78
594.533	6.49
594.726	6.25
594.92	5.99
595.113	5.92
595.306	5.74
595.499	5.43
595.693	5.41
595.886	5.48
596.079	5.26
596.272	5.09
596.466	4.82
596.659	4.85
596.852	4.71
597.045	4.89
597.238	4.73
597.431	4.66
597.624	4.8
597.818	4.78
598.011	4.85
598.204	5.08
598.397	5.24
598.59	5.34
598.783	5.44
598.976	5.48
599.169	5.59
599.362	5.77
599.555	5.91
599.748	6.02
599.941	5.85
600.134	6.02
600.326	5.92
600.519	5.97
600.712	5.96
600.905	6.17
601.098	6.42
601.291	6.28
601.483	6.38
601.676	6.42
601.869	6.2
602.062	6.4
602.255	6.26
602.447	6.34
602.64	6.25
602.833	6.06
603.025	5.76
603.218	5.64
603.411	5.38
603.603	4.98
603.796	4.8
603.989	4.66
604.181	4.45
604.374	4.44
604.566	4.27
604.759	3.99
604.951	4.03
605.144	4.08
605.336	4.1
605.529	4.16
605.721	4.44
605.914	4.54
606.106	4.69
606.299	5
606.491	5.02
606.683	5.13
606.876	5.55
607.068	5.82
607.26	6.03
607.453	6.17
607.645	6.27
607.837	6.35
608.03	6.67
608.222	6.87
608.414	6.86
608.606	7.08
608.799	7.26
608.991	7.81
609.183	8.26
609.375	8.64
609.567	9.26
609.759	9.82
609.952	10.66
610.144	11.28
610.336	12.25
610.528	13.12
610.72	14.06
610.912	15.2
611.104	15.86
611.296	16.4
611.488	17.17
611.68	17.62
611.872	18.17
612.064	18.15
612.256	18.05
612.448	17.89
612.64	17.79
612.832	17.54
613.023	17.15
613.215	16.65
613.407	16.3
613.599	15.71
613.791	15.24
613.983	14.98
614.174	14.62
614.366	14.3
614.558	13.65
614.75	13.04
614.941	12.79
615.133	12.17
615.325	12.08
615.516	12.11
615.708	11.83
615.9	11.44
616.091	10.96
616.283	10.8
616.475	10.86
616.666	11.04
616.858	11.18
617.049	10.81
617.241	10.74
617.432	10.32
617.624	9.84
617.815	9.87
618.007	9.8
618.198	9.65
618.39	9.49
618.581	9.36
618.773	9.12
618.964	9.16
619.155	9.08
619.347	9.08
619.538	9.28
619.729	9.6
619.921	9.47
620.112	9.51
620.303	9.71
620.494	9.69
620.686	9.53
620.877	9.54
621.068	9.2
621.259	9.23
621.451	9.55
621.642	9.26
621.833	9.26
622.024	9.19
622.215	9.26
622.406	9.34
622.597	9.39
622.788	9.71
622.98	9.17
623.171	9.46
623.362	9.5
623.553	9.26
623.744	9.5
623.935	9.51
624.126	9.6
624.317	9.36
624.508	9.28
624.698	9.13
624.889	8.78
625.08	9.25
625.271	9.2
625.462	9.1
625.653	8.75
625.844	8.59
626.034	8.36
626.225	8.05
626.416	8.23
626.607	8.14
626.798	8.05
626.988	8.12
627.179	8.06
627.37	7.88
627.56	8.13
627.751	8.42
627.942	8.54
628.132	8.57
628.323	8.85
628.514	8.99
628.704	9.18
628.895	9.46
629.085	9.37
629.276	9.53
629.466	9.92
629.657	9.88
629.847	10.16
630.038	10.38
630.228	10.74
630.419	10.79
630.609	10.77
630.8	10.87
630.99	11.17
631.181	11.46
631.371	11.33
631.561	11.12
631.752	11.07
631.942	10.92
632.132	10.57
632.323	10.23
632.513	10.22
632.703	10.13
632.893	9.75
633.084	9.44
633.274	9.18
633.464	9.36
633.654	9.17
633.844	8.98
634.034	8.79
634.225	8.75
634.415	8.76
634.605	8.41
634.795	8.56
634.985	8.52
635.175	8.48
635.365	8.43
635.555	8.18
635.745	8.27
635.935	8.56
636.125	8.7
636.315	8.94
636.505	8.94
636.695	9.19
636.885	8.93
637.075	9.27
637.265	9.51
637.455	9.98
637.644	10.01
637.834	10.09
638.024	9.92
638.214	9.69
638.404	9.77
638.593	9.84
638.783	10.25
638.973	10.37
639.163	10.16
639.352	10.02
639.542	9.71
639.732	9.79
639.921	9.84
640.111	9.89
640.301	10.03
640.49	10.09
640.68	10.07
640.87	9.94
641.059	10.07
641.249	10.51
641.438	10.5
641.628	10.59
641.817	10.76
642.007	10.67
642.196	10.61
642.386	10.96
642.575	10.75
642.764	11.01
642.954	10.98
643.143	10.61
643.333	10.4
643.522	10.7
643.711	10.99
643.901	10.92
644.09	11.21
644.279	11.59
644.469	11.38
644.658	11.7
644.847	11.5
645.036	11.44
645.226	11.82
645.415	11.85
645.604	11.58
645.793	11.48
645.982	11.28
646.171	11.25
646.361	11.08
646.55	11.1
646.739	11.31
646.928	11.5
647.117	11.87
647.306	11.9
647.495	11.56
647.684	11.42
647.873	11.46
648.062	11.97
648.251	11.6
648.44	11.29
648.629	11.14
648.818	10.82
649.007	10.74
649.196	10.64
649.384	10.69
649.573	10.75
649.762	11.07
649.951	11.29
650.14	11.23
650.328	11.53
650.517	11.79
650.706	11.93
650.895	11.7
651.083	11.73
651.272	11.24
651.461	11.19
651.65	11.4
651.838	11.45
652.027	11.17
652.216	11.19
652.404	10.93
652.593	10.77
652.781	10.4
652.97	10.57
653.158	10.36
653.347	10.98
653.535	11.09
653.724	11
653.912	11.06
654.101	11.28
654.289	11.04
654.478	11.62
654.666	11.78
654.855	12.31
655.043	12.66
655.231	12.88
655.42	12.44
655.608	12.59
655.796	12.78
655.985	12.65
656.173	12.62
656.361	12.94
656.55	12.54
656.738	12.86
656.926	12.36
657.114	11.89
657.302	11.54
657.491	11.54
657.679	11.21
657.867	10.95
658.055	10.64
658.243	10.52
658.431	10.42
658.619	10.25
658.807	9.54
658.996	9.76
659.184	9.58
659.372	9.66
659.56	9.39
659.748	9.18
659.936	9.15
660.124	9.32
660.311	9.46
660.499	9.21
660.687	9.42
660.875	10.23
661.063	10.35
661.251	10.34
661.439	10.19
661.627	11.11
661.814	11.38
662.002	11.46
662.19	11.65
662.378	11.61
662.565	11.91
662.753	11.94
662.941	11.54
663.129	11.72
663.316	12.39
663.504	12.87
663.692	12.43
663.879	12.47
664.067	12.81
664.254	12.87
664.442	13.08
664.63	13.23
664.817	13.35
665.005	13.35
665.192	13.21
665.38	12.96
665.567	13.35
665.755	13.59
665.942	13.82
666.13	14.22
666.317	14.21
666.504	13.83
666.692	13.8
666.879	13.94
667.067	14.22
667.254	14.27
667.441	14.57
667.629	13.81
667.816	13.42
668.003	12.97
668.19	12.87
668.378	13
668.565	13.28
668.752	13.5
668.939	13.32
669.127	12.96
669.314	12.99
669.501	12.83
669.688	13.21
669.875	13.52
670.062	13.86
670.249	13.48
670.436	13.36
670.623	13.24
670.81	12.9
670.997	12.92
671.184	12.95
671.371	13.38
671.558	13.03
671.745	12.85
671.932	12.21
672.119	12.13
672.306	12.4
672.493	12.27
672.68	12.32
672.867	13.03
673.054	13.18
673.24	13.6
673.427	13.56
673.614	14.19
673.801	14.32
673.988	15
674.174	15.3
674.361	15.36
674.548	15.64
674.734	15.68
674.921	14.79
675.108	14.63
675.294	14.57
675.481	14.72
675.668	14.32
675.854	14.59
676.041	14.38
676.227	14.67
676.414	15
676.601	14.65
676.787	14.46
676.974	14.9
677.16	14.79
677.347	14.88
677.533	14.4
677.719	14.47
677.906	13.84
678.092	13.94
678.279	13.54
678.465	12.94
678.651	12.65
678.838	12.24
679.024	12.03
679.21	11.92
679.397	11.39
679.583	11.37
679.769	11.27
679.955	11.4
680.142	11.13
680.328	11.01
680.514	10.93
680.7	10.96
680.886	11.23
681.073	11.13
681.259	11.21
681.445	11.24
681.631	11.05
681.817	11.13
682.003	11.13
682.189	11.1
682.375	11.09
682.561	11.3
682.747	11.61
682.933	11.75
683.119	12.07
683.305	12.49
683.491	12.26
683.677	12.64
683.863	12.41
684.049	12.71
684.235	12.91
684.42	12.96
684.606	12.85
684.792	12.97
684.978	13.29
685.164	13.4
685.349	13.62
685.535	14.29
685.721	13.5
685.907	14.06
686.092	14.22
686.278	14.49
686.464	14.99
686.649	15.14
686.835	15.13
687.021	15.05
687.206	14.76
687.392	14.55
687.577	14.79
687.763	15.13
687.948	15.3
688.134	15.01
688.319	14.96
688.505	14.51
688.69	14.52
688.876	14.73
689.061	14
689.247	14.37
689.432	14.04
689.618	13.66
689.803	14.15
689.988	13.94
690.174	14.41
690.359	14.25
690.544	14.27
690.73	14.58
690.915	14.27
691.1	15.14
691.285	15.53
691.471	15.81
691.656	15.98
691.841	15.52
692.026	15.51
692.211	15.22
692.396	16.11
692.582	16.39
692.767	16.07
692.952	16.31
693.137	16.64
693.322	16.5
693.507	16.82
693.692	17.35
693.877	17.91
694.062	18
694.247	18.12
694.432	17.47
694.617	17.69
694.802	17.98
694.987	18.29
695.172	17.9
695.357	17.32
695.541	17.13
695.726	16.76
695.911	16.67
696.096	16.47
696.281	16.16
696.466	16.02
696.65	15.18
696.835	15.01
697.02	14.23
697.204	14.03
697.389	13.56
697.574	13.42
697.759	12.2
697.943	11.81
698.128	11.08
698.312	10.35
698.497	9.78
698.682	9.96
698.866	9.73
699.051	9.74
699.235	9.73
699.42	9.81
699.604	9.43
699.789	10.01
699.973	10.06
700.158	10.52
700.342	11.22
700.527	12.04
700.711	12.28
700.895	12.41
701.08	12.71
701.264	12.58
701.448	12.84
701.633	13.28
701.817	14.09
702.001	14.36
702.186	14.65
702.37	14.95
702.554	15.23
702.738	14.68
702.923	15.46
703.107	15.64
703.291	16.62
703.475	16.87
703.659	17.8
703.843	17.62
704.027	18.16
704.212	18.32
704.396	18.88
704.58	18.2
704.764	18.85
704.948	17.9
705.132	18.28
705.316	17.12
705.5	17.16
705.684	16.69
705.868	16.44
706.052	16.66
706.235	16.72
706.419	16.85
706.603	18.22
706.787	18.8
706.971	18.84
707.155	18.64
707.339	19.7
707.522	19.99
707.706	20.35
707.89	20.61
708.074	20.4
708.257	20.65
708.441	20.57
708.625	19.63
708.808	19.29
708.992	19.37
709.176	19.33
709.359	18.99
709.543	18.77
709.727	18.2
709.91	17.49
710.094	17.18
710.277	17.43
710.461	16.9
710.644	17.06
710.828	17.33
711.011	17.79
711.195	18.23
711.378	18.25
711.562	18.34
711.745	17.94
711.928	18.61
712.112	18.61
712.295	18.35
712.478	18.11
712.662	18.06
712.845	17.74
713.028	17.51
713.212	17.05
713.395	16.54
713.578	16.34
713.761	16.31
713.945	15.85
714.128	16.04
714.311	16.06
714.494	16.24
714.677	15.3
714.86	15.51
715.043	15.23
715.227	15.63
715.41	15.97
715.593	16.25
715.776	16.31
715.959	16.8
716.142	16.64
716.325	16.4
716.508	16.6
716.691	17.16
716.874	16.44
717.057	16.75
717.239	16.81
717.422	16.53
717.605	16.57
717.788	17.21
717.971	17.44
718.154	18.08
718.337	18.54
718.519	18.83
718.702	19.41
718.885	20.24
719.068	20.53
719.25	20.67
719.433	21.68
719.616	21.52
719.798	21.19
719.981	21.54
720.164	20.93
720.346	20.8
720.529	19.85
720.712	19.44
720.894	19.43
721.077	19.52
721.259	19.62
721.442	19.59
721.624	20.1
721.807	20.29
721.989	19.81
722.172	20.46
722.354	20.33
722.537	21.11
722.719	21.69
722.901	22.16
723.084	22.47
723.266	21.63
723.448	21.11
723.631	22.52
723.813	22.51
723.995	22.43
724.178	21.9
724.36	21.68
724.542	21.88
724.724	21.17
724.907	21.12
725.089	21.13
725.271	21.76
725.453	21.47
725.635	19.82
725.817	20.82
725.999	20.91
726.181	21.09
726.364	21.44
726.546	21.37
726.728	22.67
726.91	21.86
727.092	20.99
727.274	20.47
727.456	20.67
727.638	20.45
727.819	19.33
728.001	18.89
728.183	18.1
728.365	18.06
728.547	18.16
728.729	16.89
728.911	17.42
729.093	17.43
729.274	17.47
729.456	16.89
729.638	16.09
729.82	16.36
730.001	16.14
730.183	16.01
730.365	15.42
730.546	14.94
730.728	15.06
730.91	15.06
731.091	15
731.273	14.99
731.455	15.63
731.636	16.28
731.818	16.01
731.999	16.06
732.181	16.29
732.362	16.88
732.544	16.95
732.725	17.15
732.907	17.3
733.088	17.21
733.27	17.11
733.451	17.11
733.633	17.63
733.814	18.45
733.995	18.21
734.177	18.41
734.358	18.63
734.539	19.03
734.721	19.11
734.902	18.66
735.083	19.03
735.264	19.62
735.446	20.27
735.627	20.06
735.808	19.57
735.989	20.27
736.17	20.27
736.351	19.66
736.533	19.88
736.714	20.52
736.895	20.38
737.076	20.83
737.257	19.92
737.438	19.55
737.619	18.16
737.8	17.83
737.981	17.83
738.162	18.29
738.343	18.53
738.524	18.59
738.705	18.62
738.886	18.99
739.067	18.32
739.247	18.51
739.428	17.59
739.609	18.31
739.79	18.69
739.971	19.58
740.151	19.95
740.332	20.39
740.513	20.28
740.694	20.18
740.874	20.74
741.055	21.25
741.236	22.48
741.417	22.81
741.597	23.2
741.778	22.5
741.958	22.2
742.139	21.72
742.32	21.47
742.5	21.43
742.681	21.28
742.861	20.55
743.042	21.01
743.222	21.22
743.403	22.19
743.583	23.26
743.764	24.7
743.944	25.11
744.124	25.02
744.305	26.07
744.485	26.74
744.666	26.29
744.846	26.39
745.026	25.63
745.207	24.34
745.387	23.95
745.567	23.54
745.747	23.38
745.928	22.81
746.108	22.87
746.288	22
746.468	21.98
746.648	22.15
746.829	22.67
747.009	23.19
747.189	23.17
747.369	23.81
747.549	23.58
747.729	23.62
747.909	23.06
748.089	24.21
748.269	23.43
748.449	22.61
748.629	23.28
748.809	23.73
748.989	22.67
749.169	23.17
749.349	23
749.529	22.72
749.709	23.47
749.889	24.26
750.068	23.93
750.248	24.24
750.428	24.29
750.608	25.16
750.788	24.85
750.967	25.78
751.147	25.38
751.327	24.33
751.507	24.36
751.686	23.43
751.866	21.9
752.046	21.57
752.225	22.47
752.405	22.84
752.585	20.93
752.764	21.16
752.944	21.22
753.123	22.26
753.303	23.78
753.482	23.82
753.662	23.75
753.841	24.84
754.021	24.92
754.2	24.65
754.38	24.11
754.559	24.97
754.739	23.96
754.918	24.16
755.097	22.94
755.277	21.81
755.456	22.28
755.635	22.28
755.815	22.11
755.994	21.95
756.173	21.34
756.352	21.48
756.532	21.55
756.711	23.2
756.89	23.19
757.069	23.22
757.248	23.31
757.427	22.5
757.607	21.86
757.786	23.16
757.965	23.2
758.144	23.38
758.323	23.9
758.502	23.38
758.681	21.75
758.86	21.13
759.039	21.97
759.218	22.35
759.397	22.44
759.576	22.35
759.755	20.68
759.934	20.29
760.113	19.68
760.291	19.35
760.47	19.82
760.649	21.48
760.828	20.86
761.007	19.98
761.186	19.89
761.364	20.29
761.543	20.37
761.722	20.53
761.901	20.8
762.079	20.87
762.258	19.81
762.437	19.35
762.615	17.93
762.794	18.16
762.972	17.88
763.151	17.37
763.33	16.47
763.508	16.34
763.687	15.85
763.865	15.01
764.044	15.02
764.222	15.36
764.401	14.87
764.579	14.96
764.758	14.5
764.936	14.98
765.114	15.17
765.293	15.8
765.471	16.3
765.65	16.8
765.828	17.96
766.006	17.91
766.184	18.37
766.363	18.54
766.541	18.66
766.719	19.05
766.898	19.33
767.076	19.67
767.254	20.08
767.432	19.71
767.61	20.06
767.788	19.75
767.967	19.77
768.145	20.23
768.323	20.93
768.501	22.16
768.679	23.34
768.857	23.1
769.035	23.25
769.213	23.36
769.391	23.27
769.569	24.04
769.747	24.75
769.925	25.06
770.103	24.71
770.281	25.2
770.459	24.87
770.636	26.08
770.814	27.31
770.992	25.49
771.17	25.97
771.348	26.97
771.525	25.81
771.703	26.04
771.881	27.09
772.059	27.37
772.236	27.24
772.414	28.58
772.592	27.72
772.769	25.97
772.947	29.61
773.125	30.66
773.302	31.14
773.48	32.23
773.657	32.09
773.835	31.65
774.013	31.28
774.19	30.93
774.368	29.1
774.545	29.62
774.723	30.84
774.9	28.95
775.077	28.2
775.255	26.66
775.432	26.04
775.61	26.64
775.787	27.23
775.964	28.01
776.142	29.56
776.319	30.2
776.496	29.36
776.674	30.28
776.851	31.3
777.028	32.04
777.205	33.65
777.382	33.27
777.56	33.09
777.737	31.83
777.914	31.3
778.091	31.42
778.268	30.61
778.445	32.02
778.622	31.28
778.8	33.65
778.977	32.44
779.154	37.59
779.331	38.65
779.508	39.14
779.685	42.11
779.862	42.05
780.038	40.7
780.215	42
780.392	41.15
780.569	40.95
780.746	37.93
780.923	37.48
781.1	32.07
781.277	31.83
781.453	30.14
781.63	28.41
781.807	31.28
781.984	32.49
782.16	32.66
782.337	32.85
782.514	34.35
782.691	35.33
782.867	35.63
783.044	34.84
783.221	34
783.397	34.97
783.574	35.66
783.75	32.73
783.927	33.69
784.103	32.82
784.28	31.84
784.456	31.44
784.633	30.41
784.809	30
784.986	30.13
785.162	31.55
785.339	30.54
785.515	31.41
785.692	33.04
785.868	30.18
786.044	27.77
786.221	27.4
786.397	26.1
786.573	27.16
786.749	26.86
786.926	26.42
787.102	25.65
787.278	25.86
787.454	25.35
787.631	24.16
787.807	24.3
787.983	25.69
788.159	25.93
788.335	26.03
788.511	25.06
788.687	26.47
788.863	26.25
789.039	25.89
789.216	25.45
789.392	23.28
789.568	24.11
789.744	25.28
789.919	26.77
790.095	26.82
790.271	26.84
790.447	27.46
790.623	26.28
790.799	25.74
790.975	25.23
791.151	26.31
791.327	26.26
791.502	24.92
791.678	24.59
791.854	24.38
792.03	26.82
792.205	25.53
792.381	25.97
792.557	26.04
792.733	26.29
792.908	29.19
793.084	29.49
793.259	30.14
793.435	30.85
793.611	31.26
793.786	29.88
793.962	26.8
794.137	30.5
794.313	28.81
794.488	27.54
794.664	29.46
794.839	27.08
795.015	26.88
795.19	27.34
795.366	27.84
795.541	28.07
795.716	27.21
795.892	26.45
796.067	24.48
796.242	22.29
796.418	24.11
796.593	22.34
796.768	22.57
796.944	21.74
797.119	21.55
797.294	20.66
797.469	19.16
797.644	21.02
797.82	22.76
797.995	22.37
798.17	24.86
798.345	25.5
798.52	26.79
798.695	26.45
798.87	26.94
799.045	28.24
799.22	27.84
799.395	27.62
799.57	27.25
799.745	25.73
799.92	24.72
800.095	24.25
800.27	22.6
800.445	21.8
800.62	22.41
800.795	22.21
800.97	20.08
801.145	19.97
801.319	19.24
801.494	19.23
801.669	20.38
801.844	23.23
802.018	23.59
802.193	25.45
802.368	25.16
802.543	23.78
802.717	23.8
802.892	25.86
803.067	27.38
803.241	27.66
803.416	27.75
803.59	27.61
803.765	27.64
803.94	26.34
804.114	24.99
804.289	23.83
804.463	25.27
804.638	25.13
804.812	22.34
804.986	23.28
805.161	25.5
805.335	24.72
805.51	24.42
805.684	22.83
805.858	24.6
806.033	24.46
806.207	24.46
806.381	26.34
806.556	24.4
806.73	26.65
806.904	25.95
807.078	25.75
807.253	26.6
807.427	26.92
807.601	25
807.775	21.75
807.949	20.25
808.123	20.86
808.298	19.85
808.472	21.56
808.646	20.77
808.82	20.46
808.994	18.7
809.168	19.41
809.342	18.62
809.516	20.38
809.69	23.01
809.864	23.33
810.038	26.38
810.212	25.58
810.385	25.27
810.559	25.14
810.733	23.33
810.907	25.45
811.081	24.61
811.255	25.66
811.428	27.88
811.602	26.09
811.776	29.28
811.95	26.21
812.123	26.4
812.297	28.35
812.471	27.14
812.644	30.1
812.818	31.77
812.992	29.67
813.165	28.5
813.339	25.69
813.512	29.09
813.686	26.43
813.86	27.89
814.033	28.64
814.207	29.28
814.38	32.67
814.554	30.85
814.727	31.36
814.9	34.08
815.074	35.85
815.247	35.98
815.421	31.57
815.594	28.53
815.767	31.76
815.941	28.52
816.114	26.58
816.287	25.7
816.46	28.23
816.634	24.1
816.807	21.97
816.98	25.93
817.153	24.38
817.327	26.82
817.5	31.34
817.673	26.77
817.846	27.9
818.019	29.8
818.192	31.36
818.365	28.9
818.538	27.46
818.711	27.85
818.884	22.93
819.057	25.22
819.23	24.25
819.403	22.24
819.576	22.98
819.749	23.32
819.922	21.89
820.095	19.13
820.268	17.85
820.441	18.82
820.614	17.31
820.786	15.39
820.959	16.47
821.132	15.38
821.305	14.07
821.477	13.04
821.65	11.93
821.823	10.48
821.996	8.78
822.168	8.2
822.341	7.24
822.514	6.78
822.686	6.4
822.859	4.59
823.031	4.46
823.204	4.34
823.376	3.8
823.549	3.51
823.722	3.39
823.894	3.45
824.067	3.25
824.239	3.36
824.411	3.35
824.584	3.82
824.756	3.58
824.929	3.15
825.101	3.04
825.273	3.28
825.446	3.01
825.618	2.7
825.79	2.53
825.963	2.93
826.135	2.67
826.307	2.81
826.479	2.93
826.652	4.24
826.824	4.36
826.996	4.35
827.168	5.04
827.34	5.84
827.512	6.31
827.684	6.99
827.856	6.53
828.029	7.06
828.201	7.31
828.373	6.84
828.545	6.79
828.717	7.15
828.889	7.91
829.061	8.7
829.232	9.57
829.404	10.5
829.576	11.37
829.748	11.57
829.92	11.16
830.092	11.37
830.264	13.54
830.436	13.84
830.607	14.28
830.779	13.83
830.951	12.74
831.123	9.96
831.294	9.96
831.466	11.52
831.638	13.65
831.809	14.25
831.981	14.57
832.153	11.64
832.324	12.7
832.496	12.88
832.667	14.71
832.839	12.75
833.011	11.14
833.182	7.97
833.354	7.8
833.525	5.17
833.697	4.25
833.868	5.92
834.039	8.26
834.211	7.56
834.382	8.64
834.554	8.04
834.725	8.09
834.896	9.99
835.068	10.45
835.239	7.33
835.41	8
835.581	11.47
835.753	9.49
835.924	9.45
836.095	8.3
836.266	8.89
836.438	8.5
836.609	8.99
836.78	10.44
836.951	10.21
837.122	12.2
837.293	12.81
837.464	10.63
837.635	12.22
837.806	11.28
837.977	13.16
838.148	12.1
838.319	14.29
838.49	14.08
838.661	16.5
838.832	19.33
839.003	24.51
839.174	26.98
839.345	29.14
839.516	30.31
839.687	31.95
839.857	32.32
840.028	32.24
840.199	27.61
840.37	32.86
840.54	31.26
840.711	30.83
840.882	27.29
841.053	26.92
841.223	23.61
841.394	18.21
841.564	13.81
841.735	16.51
841.906	18.87
842.076	25.18
842.247	25.91
842.417	27.12
842.588	27.62
842.758	24.92
842.929	21.78
843.099	20.54
843.27	28.31
843.44	30.37
843.611	30.51
843.781	27.04
843.951	22.56
844.122	14.26
844.292	11.2
844.462	12.2
844.633	14.46
844.803	11.77
844.973	9.71
845.144	6.35
845.314	1.76
845.484	-4.74
845.654	0.3
845.824	8.42
845.995	17.96
846.165	16.97
846.335	14.84
846.505	14.8
846.675	21.62
846.845	29.71
847.015	27.96
847.185	38.23
847.355	41.86
847.525	48.27
847.695	42.6
847.865	44.25
848.035	35.51
848.205	32.61
848.375	29.44
848.545	24.61
848.715	24.11
848.884	27.11
849.054	31.14
849.224	28.04
849.394	25.61
849.564	38.14
849.733	40.83
849.903	51.79
850.073	56.49
850.243	59.68
850.412	67.16
850.582	69.68
850.752	68.1
850.921	61.23
851.091	65.35
851.26	62.64
851.43	52.56
851.599	51.79
851.769	49.69
851.939	49.05
852.108	53.2
852.278	49.64
852.447	49.39
852.616	52.08
852.786	57.62
852.955	52.89
853.125	45.98
853.294	45.91
853.463	36.93
853.633	38.89
853.802	42.3
853.971	37.52
854.141	37.85
854.31	39.49
854.479	32.71
854.648	27.63
854.818	29.66
854.987	32.31
855.156	41.02
855.325	46.85
855.494	49.63
855.663	46.2
855.832	41.63
856.001	36.21
856.171	35.56
856.34	37.46
856.509	32.86
856.678	37.69
856.847	44.2
857.016	42.45
857.185	48.07
857.353	42.91
857.522	40.85
857.691	41.14
857.86	40.01
858.029	43.26
858.198	45.15
858.367	48.12
858.535	47.82
858.704	46.66
858.873	47.21
859.042	36.2
859.21	36.41
859.379	36.59
859.548	36.62
859.717	48.71
859.885	40.22
860.054	39.55
860.222	34.41
860.391	32.99
860.56	33.11
860.728	30.98
860.897	31.91
861.065	27.62
861.234	30.67
861.402	27.25
861.571	20.85
861.739	20.67
861.908	23.05
862.076	26.18
862.244	30.65
862.413	30.17
862.581	29.95
862.749	37.07
862.918	42.01
863.086	42.64
863.254	42.21
863.423	38.65
863.591	40.41
863.759	29.27
863.927	31.76
864.096	31.66
864.264	23.69
864.432	22.69
864.6	32.92
864.768	30.44
864.936	27.12
865.104	32.96
865.272	36.71
865.44	35.89
865.608	36.39
865.776	32.8
865.944	29.02
866.112	30.88
866.28	32.04
866.448	23.42
866.616	23.57
866.784	12.95
866.952	13.54
867.12	25.02
867.288	25.98
867.455	38.18
867.623	34.66
867.791	35.35
867.959	43.22
868.127	46.52
868.294	47.19
868.462	46.83
868.63	55.02
868.797	57.48
868.965	59.29
869.133	51.97
869.3	49.52
869.468	48.07
869.636	49.05
869.803	40.72
869.971	42.91
870.138	35.5
870.306	38.27
870.473	21.97
870.641	9.98
870.808	4.56
870.975	15.5
871.143	10.5
871.31	24.79
871.478	25.64
871.645	23.77
871.812	29.52
871.98	34.05
872.147	38.69
872.314	50.22
872.482	48.28
872.649	57.21
872.816	46.06
872.983	35
873.15	23.84
873.318	22.17
873.485	25.53
873.652	19.99
873.819	16.39
873.986	9.8
874.153	11.31
874.32	14.67
874.487	4.57
874.654	1.01
874.821	6.21
874.988	0.85
875.155	5.12
875.322	0.95
875.489	-12.17
875.656	-4.87
875.823	6.38
875.99	22
876.157	26.48
876.324	32.86
876.49	39.31
876.657	38.85
876.824	56.29
876.991	53.09
877.157	61.11
877.324	66.9
877.491	58.48
877.658	57.88
877.824	48.22
877.991	53.27
878.157	54.02
878.324	52.73
878.491	52.65
878.657	37.48
878.824	38.95
878.99	43.01
879.157	36.91
879.323	34.81
879.49	30.81
879.656	41.02
879.823	27.4
879.989	22.27
880.156	20.99
880.322	19.87
880.488	16.94
880.655	15.32
880.821	0.72
880.987	8.59
881.154	8.74
881.32	12.95
881.486	2.18
881.652	4.5
881.819	7.86
881.985	8.04
882.151	13.63
882.317	11.91
882.483	9.9
882.649	10.83
882.816	7
882.982	6.09
883.148	5.99
883.314	8.05
883.48	8.11
883.646	5.94
883.812	6.33
883.978	4.37
884.144	6.33
884.31	7.06
884.476	6.61
884.642	7.8
884.807	8.6
884.973	7.97
885.139	7.08
885.305	5.63
885.471	7.55
885.637	7.27
885.802	6.88
885.968	7.21
886.134	6.64
886.3	8.75
886.465	7.78
886.631	4.82
886.797	6.67
886.962	9.92
887.128	15.61
887.293	13.83
887.459	16.96
887.625	16.83
887.79	15.12
887.956	17.46
888.121	16.08
888.287	19.76
888.452	29.93
888.618	26.93
888.783	21.45
