Data from LC_250_Reflection_1.txt Node
Date: Thu Nov 19 23:01:36 EST 2015
User: robert
Spectrometer: USB4E03001
Autoset integration time: false
Trigger mode: 4
Integration Time (sec): 1.000000E-1
Scans to average: 15
Electric dark correction enabled: true
Nonlinearity correction enabled: false
Boxcar width: 5
Stray light correction enabled: false
XAxis mode: Wavelengths
Stop averaging: false
Number of Pixels in Spectrum: 3648
>>>>>Begin Spectral Data<<<<<
177.566	38.58
177.785	10.97
178.005	52.28
178.225	11.6
178.445	38.11
178.665	42.18
178.885	53.82
179.105	-210.71
179.324	-244.53
179.544	-76.41
179.764	-18.31
179.984	6.27
180.204	74.18
180.423	32.86
180.643	105.25
180.863	41.88
181.083	56.29
181.302	22.63
181.522	63.91
181.742	80.51
181.961	93.57
182.181	127.01
182.401	147.04
182.621	143.74
182.84	95.87
183.06	82.42
183.279	57.87
183.499	14.88
183.719	104.16
183.938	-680.47
184.158	678
184.377	672.45
184.597	-606.74
184.816	7204.72
185.036	430.47
185.256	-2885
185.475	-168.93
185.695	-55.32
185.914	-45.24
186.134	-183.15
186.353	-112.5
186.572	-78.97
186.792	-171.33
187.011	487.95
187.231	472.74
187.45	278.13
187.67	87.18
187.889	50.8
188.108	73.66
188.328	91.27
188.547	204.18
188.766	362.04
188.986	313.66
189.205	-3153.92
189.424	-31.71
189.644	48.49
189.863	25.55
190.082	49.32
190.302	39.97
190.521	80.77
190.74	97.87
190.959	101.57
191.178	110.8
191.398	98.57
191.617	114.34
191.836	358.86
192.055	144
192.274	254.19
192.494	165.2
192.713	106.7
192.932	80.86
193.151	87.33
193.37	93.17
193.589	111.62
193.808	91.28
194.027	79.96
194.246	68.51
194.465	60.83
194.685	61.65
194.904	51.15
195.123	28.69
195.342	24.63
195.561	11.47
195.78	36.5
195.999	30.56
196.218	31.39
196.436	37.77
196.655	22.28
196.874	33.65
197.093	-3
197.312	32.19
197.531	77.35
197.75	81.47
197.969	135.46
198.188	-4.53
198.407	6.35
198.625	40.24
198.844	60.66
199.063	93.46
199.282	74.86
199.501	8.61
199.719	149.14
199.938	138.22
200.157	200.12
200.376	136.35
200.594	439.29
200.813	-118.98
201.032	214.54
201.251	262.61
201.469	96.28
201.688	84.71
201.907	183.25
202.125	531.73
202.344	162.91
202.563	116.17
202.781	60.21
203	8.67
203.218	33.71
203.437	5.09
203.656	23.56
203.874	55.83
204.093	31.4
204.311	3.48
204.53	30.35
204.748	18.65
204.967	37.62
205.185	-12.28
205.404	-77.06
205.622	-20.1
205.841	-0.73
206.059	-58.09
206.278	-60.68
206.496	-59.04
206.715	-53.81
206.933	-37.33
207.151	-4.23
207.37	-137.09
207.588	-179.77
207.806	-44.96
208.025	-101.52
208.243	-356.78
208.461	-603.2
208.68	-497.34
208.898	-281.4
209.116	-285.2
209.335	-468.71
209.553	-1731.14
209.771	8427.73
209.989	-1033.41
210.208	1028.6
210.426	1302.35
210.644	-181.68
210.862	-58.86
211.081	-26.17
211.299	-27.12
211.517	51.73
211.735	63.65
211.953	58.04
212.171	56.17
212.39	93.18
212.608	101.65
212.826	112.18
213.044	128.23
213.262	138.34
213.48	150.49
213.698	145.68
213.916	135.43
214.134	101.15
214.352	151.12
214.57	167.77
214.788	241.58
215.006	99.8
215.224	-35.25
215.442	17.85
215.66	36.35
215.878	-140.39
216.096	-187.28
216.314	-376.74
216.532	-393.48
216.75	-969.46
216.968	308.91
217.185	1324.51
217.403	2348.33
217.621	4863.05
217.839	-358.71
218.057	-199.44
218.275	-27.27
218.492	-44.71
218.71	-27.81
218.928	-43.25
219.146	-39.33
219.363	-3.12
219.581	8.72
219.799	27.92
220.017	45.96
220.234	39.95
220.452	40.65
220.67	12.87
220.887	11.14
221.105	23.35
221.323	21.43
221.54	39.64
221.758	46.61
221.976	31.8
222.193	29.02
222.411	12.37
222.629	12
222.846	1.61
223.064	15.2
223.281	24.92
223.499	24.48
223.716	27.98
223.934	4.3
224.151	3.21
224.369	7.82
224.586	10.36
224.804	30.58
225.021	36.85
225.239	34.62
225.456	17.2
225.674	15
225.891	14.1
226.108	28.61
226.326	36.74
226.543	46.78
226.76	43.12
226.978	28.76
227.195	18.57
227.413	8.51
227.63	9.38
227.847	13.78
228.064	13.55
228.282	13.98
228.499	13.39
228.716	13.12
228.934	9.8
229.151	11.16
229.368	10.84
229.585	11.57
229.802	12.7
230.02	11.72
230.237	12.25
230.454	10.7
230.671	9.24
230.888	8.84
231.105	6.01
231.323	9.38
231.54	5.6
231.757	7.32
231.974	6.44
232.191	8.87
232.408	9
232.625	7.95
232.842	9.62
233.059	12.27
233.276	11.85
233.493	12.19
233.71	10.74
233.927	16.56
234.144	14.1
234.361	9.2
234.578	8.21
234.795	10.87
235.012	12.07
235.229	5.27
235.446	7.32
235.663	3.05
235.879	5.34
236.096	1.65
236.313	0.56
236.53	0.87
236.747	2.64
236.964	4.37
237.181	1.37
237.397	-1.78
237.614	6.88
237.831	7.47
238.048	12.61
238.264	11.83
238.481	12.35
238.698	7.2
238.915	11.17
239.131	11.64
239.348	10.16
239.565	13.83
239.781	15.74
239.998	13.51
240.215	12.56
240.431	11.07
240.648	13.11
240.865	13
241.081	13.94
241.298	12.19
241.514	11.54
241.731	11.65
241.947	9.95
242.164	8.74
242.38	8.99
242.597	8.54
242.814	7.74
243.03	8.04
243.246	9.94
243.463	10.18
243.679	10.4
243.896	11.18
244.112	9.71
244.329	10.54
244.545	11.54
244.762	10.35
244.978	9.73
245.194	10.19
245.411	9.33
245.627	8.02
245.843	8.58
246.06	9.97
246.276	10.41
246.492	11.12
246.709	10.8
246.925	10.7
247.141	11.11
247.357	11.38
247.574	11.52
247.79	10.98
248.006	10.65
248.222	10.56
248.439	9.91
248.655	9.56
248.871	9.42
249.087	9.59
249.303	8.79
249.519	8.21
249.736	8.27
249.952	8.17
250.168	7.27
250.384	6.81
250.6	6.36
250.816	5.56
251.032	5.68
251.248	5.76
251.464	5.08
251.68	6.31
251.896	7.03
252.112	6.57
252.328	6.43
252.544	6.96
252.76	8.25
252.976	9.78
253.192	10.1
253.408	10.08
253.624	11.4
253.84	12.24
254.056	11.54
254.272	10.65
254.487	10.97
254.703	10.99
254.919	11.36
255.135	12.36
255.351	9.83
255.567	11.14
255.782	10.18
255.998	10.35
256.214	9.11
256.43	8.46
256.646	10.87
256.861	9.84
257.077	10.56
257.293	12.75
257.508	14.03
257.724	14.34
257.94	13
258.155	13.65
258.371	12.37
258.587	12.69
258.802	13.39
259.018	13.35
259.234	12.9
259.449	12.95
259.665	11.71
259.88	9.73
260.096	10.21
260.312	9.54
260.527	9.56
260.743	9.57
260.958	9.23
261.174	8.64
261.389	8.02
261.605	8.45
261.82	6.86
262.036	6.22
262.251	6.73
262.466	6.11
262.682	6.63
262.897	6.12
263.113	4.59
263.328	6.57
263.543	6.89
263.759	6.63
263.974	6.88
264.189	8.62
264.405	10.02
264.62	10.27
264.835	9.8
265.051	9.45
265.266	8.68
265.481	11.05
265.696	8.64
265.912	7.45
266.127	8.39
266.342	7.28
266.557	7.2
266.773	6.56
266.988	5.53
267.203	5.32
267.418	6.17
267.633	6.34
267.848	4.56
268.064	5.06
268.279	5.63
268.494	5.33
268.709	5.55
268.924	5.32
269.139	5.21
269.354	5.3
269.569	5.69
269.784	4.93
269.999	4.21
270.214	4.96
270.429	4.64
270.644	4.84
270.859	4.44
271.074	3.83
271.289	4.36
271.504	4.4
271.719	5.73
271.934	5.93
272.149	6.83
272.363	7.62
272.578	7.96
272.793	7.83
273.008	7.39
273.223	7.26
273.438	8.2
273.653	7.37
273.867	7.14
274.082	6.03
274.297	5.54
274.512	5.19
274.726	5.22
274.941	4.27
275.156	3.38
275.371	3.76
275.585	4.94
275.8	3.49
276.015	4.18
276.229	5.79
276.444	6.72
276.659	6.45
276.873	5.39
277.088	6.09
277.302	6.56
277.517	8.65
277.732	9.07
277.946	8.3
278.161	9.09
278.375	9.08
278.59	8.66
278.804	8.96
279.019	9.01
279.233	9.3
279.448	8.58
279.662	9.25
279.877	8.6
280.091	8.86
280.306	8.33
280.52	7.67
280.735	8.13
280.949	8
281.163	7.6
281.378	8.85
281.592	9.21
281.806	10.04
282.021	9.48
282.235	9.71
282.449	9.19
282.664	9.76
282.878	11.3
283.092	11.59
283.307	12.43
283.521	12.52
283.735	11.14
283.949	12.05
284.164	10.3
284.378	10.43
284.592	9.37
284.806	10.08
285.02	10.6
285.234	10.41
285.449	8.88
285.663	8.08
285.877	8.2
286.091	8.57
286.305	7.96
286.519	8.37
286.733	8.53
286.947	9.06
287.161	7.42
287.375	7.5
287.589	6.08
287.803	7.33
288.017	8.05
288.231	9.03
288.445	9.28
288.659	9.41
288.873	8.94
289.087	8.13
289.301	8.64
289.515	9.28
289.729	7.99
289.943	9.33
290.157	9.62
290.371	8.51
290.584	6.97
290.798	6.28
291.012	7.05
291.226	7.93
291.44	8.6
291.654	7.79
291.867	8.64
292.081	8.88
292.295	7.56
292.509	6
292.722	7.83
292.936	8.43
293.15	8.47
293.364	8.37
293.577	7.91
293.791	7.7
294.005	8.32
294.218	8.26
294.432	8.25
294.645	9.1
294.859	9.32
295.073	7.79
295.286	7.83
295.5	8.63
295.713	7.85
295.927	8.33
296.14	8.66
296.354	7.56
296.568	7.99
296.781	8.24
296.994	8.69
297.208	8.88
297.421	9.36
297.635	10.44
297.848	10.64
298.062	10.77
298.275	10.76
298.489	10.25
298.702	11.18
298.915	11.21
299.129	11.08
299.342	10.75
299.555	11.31
299.769	10.73
299.982	8.79
300.195	7.54
300.409	7.63
300.622	7.31
300.835	8.3
301.048	8.78
301.262	7.68
301.475	6.87
301.688	6.3
301.901	6
302.115	7.18
302.328	8.41
302.541	8.1
302.754	8.14
302.967	8.31
303.18	7.54
303.393	6.2
303.607	7.17
303.82	8
304.033	7.76
304.246	8.95
304.459	7.89
304.672	8.09
304.885	8.9
305.098	8.28
305.311	8.49
305.524	8.06
305.737	8.59
305.95	7.23
306.163	6.66
306.376	6.67
306.589	5.55
306.802	5.56
307.015	5.12
307.228	5.44
307.44	6.67
307.653	7.35
307.866	8.84
308.079	8.57
308.292	9.5
308.505	9.71
308.718	9.5
308.93	8.29
309.143	8.72
309.356	8.37
309.569	8.8
309.781	8.34
309.994	7.72
310.207	7.16
310.42	8.38
310.632	8.08
310.845	8.09
311.058	9.46
311.27	9.56
311.483	9.7
311.696	10.08
311.908	10.68
312.121	9.98
312.333	9.87
312.546	9.71
312.759	9.53
312.971	9.05
313.184	9.62
313.396	8.93
313.609	9.54
313.821	8.77
314.034	9.15
314.246	8.06
314.459	8.42
314.671	9.01
314.884	9.93
315.096	9.04
315.309	10.14
315.521	10.74
315.733	10.68
315.946	11.11
316.158	12.36
316.371	11.2
316.583	11.48
316.795	11.25
317.008	10.61
317.22	9.35
317.432	8.93
317.644	9.06
317.857	7.09
318.069	6.48
318.281	6.71
318.494	6.25
318.706	5.27
318.918	4.05
319.13	4.01
319.342	3.77
319.555	3.97
319.767	4.26
319.979	4.11
320.191	5.19
320.403	5.95
320.615	6.05
320.827	5.51
321.039	6
321.252	6.68
321.464	7.81
321.676	7.74
321.888	6.91
322.1	8.15
322.312	8.1
322.524	8.49
322.736	7.59
322.948	8.23
323.16	8.31
323.372	8.98
323.584	8.93
323.796	7.51
324.007	7.94
324.219	9.09
324.431	8.35
324.643	7.89
324.855	7.89
325.067	8.68
325.279	7.64
325.491	7.97
325.702	7.81
325.914	6.67
326.126	8.4
326.338	8.75
326.55	8.07
326.761	8.07
326.973	8.36
327.185	8.44
327.396	8.24
327.608	8.54
327.82	8.35
328.032	8.36
328.243	10.36
328.455	9.25
328.666	9.58
328.878	9.68
329.09	10.39
329.301	11.83
329.513	11.43
329.725	10.96
329.936	10.82
330.148	11.01
330.359	10.95
330.571	10.33
330.782	11.12
330.994	10.47
331.205	10.72
331.417	10.96
331.628	9.28
331.84	9.51
332.051	10.31
332.262	10.56
332.474	11.84
332.685	12.68
332.897	12.87
333.108	12.44
333.319	12.42
333.531	11.97
333.742	11.01
333.953	11.38
334.165	12.16
334.376	12.08
334.587	12.39
334.799	10.54
335.01	9.73
335.221	9.21
335.432	10.58
335.644	9.73
335.855	10.17
336.066	10.54
336.277	10.16
336.488	9.3
336.7	8.93
336.911	8.26
337.122	8.68
337.333	9.55
337.544	9.63
337.755	7.58
337.966	8.15
338.177	8.66
338.388	9.27
338.599	10.07
338.811	9.93
339.022	9.78
339.233	9.14
339.444	9.58
339.655	9.42
339.866	9.18
340.076	10.23
340.287	10.76
340.498	10.29
340.709	9.65
340.92	8.74
341.131	9.32
341.342	9.78
341.553	10.99
341.764	10.62
341.975	9.91
342.185	10.57
342.396	10.52
342.607	10.59
342.818	10.1
343.029	10.51
343.239	10.57
343.45	10.45
343.661	10.3
343.872	10.21
344.082	9.97
344.293	10.85
344.504	10.42
344.714	10.19
344.925	10.37
345.136	10.82
345.346	9.11
345.557	8.81
345.768	8.07
345.978	7.93
346.189	6.94
346.399	7.02
346.61	6.48
346.821	6.65
347.031	6.54
347.242	7.19
347.452	7.31
347.663	8.11
347.873	8.71
348.084	9.24
348.294	9.35
348.504	10.54
348.715	10.8
348.925	10.57
349.136	10.8
349.346	10.68
349.557	9.54
349.767	9.29
349.977	10.09
350.188	9.62
350.398	9.25
350.608	9.49
350.819	9.08
351.029	9.02
351.239	9.14
351.449	8.43
351.66	8.18
351.87	7.46
352.08	7.64
352.29	8.29
352.501	8.14
352.711	8.7
352.921	8.54
353.131	8.73
353.341	7.89
353.552	8.17
353.762	7.98
353.972	8.63
354.182	8.91
354.392	8.99
354.602	7.84
354.812	7.94
355.022	7.41
355.232	7.58
355.442	7.42
355.652	7.57
355.862	7.15
356.072	7.45
356.282	8.12
356.492	8.43
356.702	8.37
356.912	8.2
357.122	8.88
357.332	9.38
357.542	9.11
357.752	9.01
357.962	9.53
358.171	9.83
358.381	10.33
358.591	9.36
358.801	9.31
359.011	9.58
359.221	9.67
359.43	9.1
359.64	8.5
359.85	8.69
360.06	8.6
360.269	8.84
360.479	8.91
360.689	8.64
360.899	8.6
361.108	8.62
361.318	8.59
361.528	8.76
361.737	8.87
361.947	8.93
362.156	8.65
362.366	8.89
362.576	8.92
362.785	8.73
362.995	8.25
363.204	8.08
363.414	7.69
363.623	7.32
363.833	7.27
364.042	6.65
364.252	7.05
364.461	6.95
364.671	6.96
364.88	7.05
365.09	7.17
365.299	7.94
365.509	8.35
365.718	8.63
365.927	9.19
366.137	9.22
366.346	10.01
366.555	9.44
366.765	9.74
366.974	9.42
367.183	8.72
367.393	8
367.602	7.8
367.811	8.21
368.021	9.04
368.23	7.87
368.439	7.94
368.648	7.48
368.857	7.63
369.067	7.26
369.276	7.95
369.485	7.72
369.694	8.09
369.903	7.56
370.112	6.48
370.321	5.46
370.531	5.88
370.74	5.35
370.949	5.51
371.158	5.55
371.367	5.46
371.576	4.2
371.785	4.27
371.994	4.17
372.203	4.53
372.412	5.31
372.621	5.27
372.83	5.29
373.039	6.03
373.248	6.17
373.457	6.45
373.666	6.62
373.874	7.53
374.083	7.69
374.292	7.84
374.501	7.85
374.71	8.05
374.919	8.1
375.128	8.53
375.336	7.99
375.545	7.88
375.754	7.34
375.963	7.83
376.171	7.44
376.38	7.68
376.589	7.51
376.798	7.09
377.006	6.6
377.215	6.84
377.424	6.15
377.632	6.27
377.841	6.24
378.05	7.13
378.258	6.72
378.467	6.73
378.675	6.49
378.884	6.85
379.093	7.02
379.301	6.89
379.51	6.71
379.718	7.04
379.927	7.24
380.135	7.27
380.344	6.47
380.552	6.91
380.761	6.78
380.969	6.88
381.177	6.41
381.386	6.2
381.594	6.93
381.803	6.85
382.011	6.83
382.219	6.79
382.428	6.79
382.636	6.89
382.845	6.9
383.053	6.51
383.261	6.21
383.469	6.48
383.678	6.73
383.886	6.23
384.094	6.34
384.302	6.37
384.511	6.04
384.719	6.09
384.927	5.98
385.135	5.92
385.343	6.48
385.552	6.93
385.76	6.67
385.968	6.49
386.176	6.6
386.384	6.53
386.592	6.57
386.8	6.99
387.008	6.67
387.216	6.46
387.424	6.28
387.633	6.19
387.841	5.66
388.049	5.87
388.257	6.02
388.465	5.84
388.672	5.98
388.88	5.6
389.088	5.26
389.296	5.33
389.504	5.67
389.712	5.67
389.92	5.53
390.128	5.69
390.336	5.87
390.544	5.89
390.751	5.86
390.959	5.83
391.167	6.33
391.375	6.28
391.583	6.07
391.79	5.94
391.998	5.85
392.206	6.07
392.414	6.36
392.621	6.18
392.829	6.22
393.037	6.31
393.244	6.29
393.452	6.03
393.66	5.82
393.867	6.07
394.075	6.12
394.283	5.97
394.49	5.85
394.698	5.67
394.905	5.73
395.113	5.77
395.32	5.77
395.528	5.66
395.735	6.1
395.943	6.21
396.15	6.02
396.358	6.05
396.565	6.22
396.773	6.03
396.98	5.97
397.188	5.89
397.395	5.65
397.602	5.38
397.81	5.04
398.017	4.65
398.225	4.7
398.432	4.52
398.639	4.23
398.847	4.07
399.054	4.29
399.261	4.25
399.468	4.34
399.676	4.42
399.883	4.47
400.09	5.02
400.297	5.04
400.505	5.1
400.712	5.58
400.919	5.78
401.126	5.99
401.333	5.99
401.54	6.14
401.748	6.34
401.955	6.25
402.162	6.49
402.369	6.48
402.576	6.57
402.783	6.56
402.99	6.56
403.197	6.84
403.404	6.56
403.611	6.47
403.818	6.42
404.025	6.19
404.232	5.98
404.439	5.92
404.646	5.59
404.853	5.38
405.06	5.18
405.267	5.32
405.474	5.01
405.681	5.26
405.887	5.31
406.094	5.18
406.301	5.18
406.508	5.59
406.715	5.51
406.922	5.5
407.128	5.39
407.335	5.55
407.542	5.29
407.749	5.18
407.955	5.06
408.162	5.09
408.369	5.03
408.575	5.29
408.782	4.92
408.989	5.1
409.195	5.08
409.402	5.16
409.609	5.11
409.815	4.98
410.022	5.32
410.228	5.52
410.435	5.39
410.642	5.44
410.848	5.09
411.055	5.22
411.261	5.24
411.468	5.29
411.674	5.45
411.881	5.63
412.087	5.64
412.294	5.42
412.5	4.95
412.706	4.74
412.913	4.95
413.119	4.91
413.326	4.75
413.532	4.8
413.738	4.56
413.945	4.44
414.151	4.58
414.357	4.77
414.564	4.72
414.77	4.83
414.976	5.11
415.182	4.99
415.389	5.21
415.595	5.06
415.801	4.93
416.007	5.23
416.214	5.19
416.42	4.9
416.626	4.92
416.832	5.15
417.038	5.08
417.244	5.09
417.45	5.15
417.657	5.18
417.863	5.48
418.069	5.52
418.275	5.5
418.481	5.58
418.687	5.54
418.893	5.54
419.099	5.44
419.305	5.59
419.511	5.52
419.717	5.39
419.923	5.15
420.129	5.12
420.335	5.03
420.541	5.12
420.746	5.03
420.952	5.13
421.158	5
421.364	4.96
421.57	4.84
421.776	4.86
421.982	4.9
422.187	4.99
422.393	4.84
422.599	4.85
422.805	4.66
423.01	4.66
423.216	4.52
423.422	4.52
423.628	4.51
423.833	4.53
424.039	4.49
424.245	4.47
424.45	4.63
424.656	4.75
424.862	4.74
425.067	4.71
425.273	4.79
425.478	4.88
425.684	5.04
425.889	5.21
426.095	5.21
426.301	5.26
426.506	5.32
426.712	5.14
426.917	5.24
427.123	5.27
427.328	5.27
427.533	5.4
427.739	5.55
427.944	5.47
428.15	5.09
428.355	5.04
428.561	5.02
428.766	5.03
428.971	5.03
429.177	4.95
429.382	5.02
429.587	5.27
429.793	5.06
429.998	4.84
430.203	4.62
430.408	4.8
430.614	4.98
430.819	4.93
431.024	4.8
431.229	4.82
431.434	4.59
431.64	4.45
431.845	4.47
432.05	4.63
432.255	4.57
432.46	4.72
432.665	4.73
432.87	4.77
433.076	4.76
433.281	4.77
433.486	4.76
433.691	4.86
433.896	4.87
434.101	4.69
434.306	4.46
434.511	4.5
434.716	4.6
434.921	4.54
435.126	4.57
435.331	4.72
435.535	4.63
435.74	4.62
435.945	4.78
436.15	4.6
436.355	4.84
436.56	4.84
436.765	4.93
436.97	4.79
437.174	4.89
437.379	4.75
437.584	4.54
437.789	4.63
437.993	4.64
438.198	4.41
438.403	4.42
438.608	4.4
438.812	4.45
439.017	4.38
439.222	4.5
439.426	4.41
439.631	4.42
439.836	4.62
440.04	4.73
440.245	4.82
440.45	5
440.654	5.15
440.859	5.11
441.063	5.29
441.268	5.28
441.472	5.23
441.677	5.27
441.881	5.29
442.086	4.99
442.29	4.82
442.495	4.63
442.699	4.6
442.904	4.68
443.108	4.63
443.312	4.43
443.517	4.29
443.721	4.26
443.925	4.34
444.13	4.39
444.334	4.67
444.538	4.83
444.743	5.02
444.947	4.86
445.151	4.72
445.356	4.87
445.56	4.98
445.764	5.03
445.968	5.11
446.173	5.04
446.377	4.95
446.581	4.88
446.785	4.92
446.989	4.89
447.193	4.91
447.398	4.87
447.602	4.71
447.806	4.62
448.01	4.68
448.214	4.62
448.418	4.46
448.622	4.51
448.826	4.58
449.03	4.41
449.234	4.24
449.438	4.28
449.642	4.25
449.846	4.26
450.05	4.29
450.254	4.28
450.458	4.2
450.662	4.33
450.866	4.37
451.069	4.35
451.273	4.45
451.477	4.53
451.681	4.42
451.885	4.48
452.089	4.54
452.292	4.43
452.496	4.28
452.7	4.33
452.904	4.31
453.107	4.25
453.311	4.2
453.515	4.09
453.719	4.26
453.922	4.31
454.126	4.29
454.33	4.34
454.533	4.32
454.737	4.31
454.94	4.3
455.144	4.47
455.348	4.56
455.551	4.58
455.755	4.6
455.958	4.44
456.162	4.49
456.365	4.5
456.569	4.29
456.772	4.37
456.976	4.69
457.179	4.72
457.383	4.62
457.586	4.5
457.79	4.66
457.993	4.55
458.196	4.53
458.4	4.69
458.603	4.76
458.807	4.89
459.01	4.91
459.213	4.81
459.417	4.83
459.62	4.84
459.823	4.77
460.026	4.6
460.23	4.77
460.433	4.69
460.636	4.52
460.839	4.53
461.042	4.54
461.246	4.44
461.449	4.35
461.652	4.26
461.855	4.24
462.058	4.31
462.261	4.37
462.464	4.27
462.668	4.35
462.871	4.47
463.074	4.36
463.277	4.19
463.48	4.36
463.683	4.37
463.886	4.47
464.089	4.44
464.292	4.54
464.495	4.69
464.698	4.55
464.901	4.6
465.104	4.79
465.306	4.91
465.509	5
465.712	4.82
465.915	4.81
466.118	4.67
466.321	4.82
466.524	4.8
466.726	4.61
466.929	4.71
467.132	4.69
467.335	4.39
467.538	4.23
467.74	4.11
467.943	4.3
468.146	4.32
468.348	4.41
468.551	4.33
468.754	4.35
468.956	4.52
469.159	4.59
469.362	4.68
469.564	4.68
469.767	4.98
469.969	5.01
470.172	4.99
470.375	4.95
470.577	4.99
470.78	5.07
470.982	5.09
471.185	5.07
471.387	4.89
471.59	4.79
471.792	4.9
471.995	4.79
472.197	4.94
472.399	4.94
472.602	5.04
472.804	4.85
473.007	4.61
473.209	4.38
473.411	4.19
473.614	4.35
473.816	4.52
474.018	4.48
474.22	4.36
474.423	4.33
474.625	4.21
474.827	4.15
475.03	4.27
475.232	4.38
475.434	4.57
475.636	4.59
475.838	4.63
476.04	4.43
476.243	4.34
476.445	4.33
476.647	4.29
476.849	4.33
477.051	4.28
477.253	4.29
477.455	4.35
477.657	4.29
477.859	4.33
478.061	4.26
478.263	4.29
478.465	4.37
478.667	4.38
478.869	4.58
479.071	4.49
479.273	4.56
479.475	4.46
479.677	4.49
479.879	4.55
480.081	4.49
480.283	4.48
480.485	4.46
480.686	4.46
480.888	4.43
481.09	4.31
481.292	4.52
481.494	4.58
481.695	4.74
481.897	4.72
482.099	4.69
482.301	4.67
482.502	4.63
482.704	4.55
482.906	4.56
483.107	4.62
483.309	4.6
483.511	4.54
483.712	4.47
483.914	4.45
484.115	4.44
484.317	4.43
484.519	4.47
484.72	4.52
484.922	4.58
485.123	4.58
485.325	4.55
485.526	4.53
485.728	4.53
485.929	4.57
486.131	4.51
486.332	4.52
486.534	4.53
486.735	4.51
486.936	4.44
487.138	4.46
487.339	4.4
487.541	4.44
487.742	4.47
487.943	4.48
488.144	4.51
488.346	4.54
488.547	4.57
488.748	4.61
488.95	4.58
489.151	4.56
489.352	4.54
489.553	4.72
489.755	4.73
489.956	4.73
490.157	4.71
490.358	4.67
490.559	4.66
490.76	4.63
490.961	4.64
491.163	4.72
491.364	4.78
491.565	4.78
491.766	4.66
491.967	4.67
492.168	4.65
492.369	4.72
492.57	4.7
492.771	4.69
492.972	4.63
493.173	4.61
493.374	4.62
493.575	4.63
493.776	4.62
493.976	4.53
494.177	4.46
494.378	4.52
494.579	4.37
494.78	4.39
494.981	4.35
495.182	4.38
495.382	4.2
495.583	4.1
495.784	3.99
495.985	4.04
496.185	4.15
496.386	4.21
496.587	4.22
496.788	4.33
496.988	4.52
497.189	4.49
497.39	4.68
497.59	4.83
497.791	4.87
497.992	4.93
498.192	4.95
498.393	5.09
498.593	5.09
498.794	5.06
498.994	5.04
499.195	4.93
499.395	5.02
499.596	4.9
499.796	4.75
499.997	4.72
500.197	4.72
500.398	4.77
500.598	4.6
500.799	4.61
500.999	4.59
501.199	4.54
501.4	4.53
501.6	4.52
501.801	4.44
502.001	4.6
502.201	4.6
502.402	4.67
502.602	4.53
502.802	4.6
503.002	4.65
503.203	4.71
503.403	4.8
503.603	4.78
503.803	4.86
504.003	4.96
504.204	4.9
504.404	4.92
504.604	4.85
504.804	4.95
505.004	4.94
505.204	4.87
505.404	4.81
505.604	4.76
505.804	4.87
506.005	4.83
506.205	4.8
506.405	4.86
506.605	5.04
506.805	5.04
507.005	4.97
507.204	4.99
507.404	4.91
507.604	4.91
507.804	5.03
508.004	5.14
508.204	5.14
508.404	5.1
508.604	5.16
508.804	4.97
509.003	5.09
509.203	5.07
509.403	5.06
509.603	5.11
509.803	5.21
510.002	5.05
510.202	4.8
510.402	4.81
510.602	4.8
510.801	4.73
511.001	4.76
511.201	4.69
511.4	4.74
511.6	4.87
511.8	4.93
511.999	4.86
512.199	5
512.398	5.1
512.598	5.1
512.797	5.2
512.997	5.23
513.197	5.24
513.396	5.25
513.596	5.09
513.795	4.94
513.994	4.99
514.194	5.12
514.393	5.08
514.593	5.22
514.792	5.19
514.992	5.21
515.191	5.4
515.39	5.43
515.59	5.54
515.789	5.73
515.988	5.8
516.188	5.75
516.387	5.67
516.586	5.74
516.786	5.59
516.985	5.59
517.184	5.6
517.383	5.55
517.582	5.47
517.782	5.47
517.981	5.46
518.18	5.4
518.379	5.45
518.578	5.47
518.777	5.44
518.976	5.45
519.176	5.56
519.375	5.59
519.574	5.59
519.773	5.64
519.972	5.66
520.171	5.63
520.37	5.72
520.569	5.78
520.768	5.86
520.967	5.92
521.166	5.93
521.365	5.93
521.564	5.84
521.762	5.68
521.961	5.8
522.16	5.76
522.359	5.93
522.558	5.99
522.757	5.9
522.956	5.88
523.154	5.83
523.353	5.98
523.552	5.99
523.751	6.12
523.949	6.34
524.148	6.23
524.347	6.3
524.546	6.29
524.744	6.3
524.943	6.33
525.142	6.2
525.34	6.35
525.539	6.28
525.737	6.24
525.936	6.31
526.135	6.31
526.333	6.4
526.532	6.38
526.73	6.38
526.929	6.39
527.127	6.46
527.326	6.53
527.524	6.52
527.723	6.56
527.921	6.67
528.12	6.61
528.318	6.66
528.516	6.64
528.715	6.65
528.913	6.69
529.112	6.73
529.31	6.72
529.508	6.74
529.707	6.73
529.905	6.76
530.103	6.77
530.301	6.81
530.5	6.77
530.698	6.76
530.896	6.79
531.094	6.72
531.293	6.71
531.491	6.77
531.689	6.81
531.887	6.9
532.085	6.88
532.283	6.85
532.481	6.87
532.68	6.95
532.878	7.08
533.076	7.2
533.274	7.28
533.472	7.31
533.67	7.33
533.868	7.32
534.066	7.35
534.264	7.43
534.462	7.48
534.66	7.65
534.858	7.69
535.056	7.72
535.253	7.71
535.451	7.79
535.649	7.88
535.847	7.95
536.045	8.03
536.243	8.07
536.441	8.2
536.638	8.23
536.836	8.23
537.034	8.34
537.232	8.45
537.43	8.48
537.627	8.4
537.825	8.41
538.023	8.43
538.22	8.41
538.418	8.37
538.616	8.31
538.813	8.31
539.011	8.31
539.209	8.34
539.406	8.44
539.604	8.5
539.801	8.76
539.999	8.84
540.196	8.95
540.394	9.07
540.591	9.09
540.789	9.02
540.986	9.03
541.184	9.06
541.381	9.08
541.579	9.07
541.776	9.11
541.974	9.07
542.171	9.07
542.368	9.07
542.566	9.2
542.763	9.18
542.96	9.29
543.158	9.39
543.355	9.46
543.552	9.55
543.75	9.58
543.947	9.72
544.144	9.81
544.341	9.88
544.539	9.93
544.736	9.96
544.933	10.11
545.13	10.23
545.327	10.26
545.524	10.2
545.722	10.22
545.919	10.3
546.116	10.24
546.313	10.33
546.51	10.41
546.707	10.47
546.904	10.53
547.101	10.64
547.298	10.67
547.495	10.75
547.692	10.85
547.889	10.85
548.086	10.95
548.283	11.07
548.48	11.15
548.677	11.2
548.874	11.35
549.07	11.38
549.267	11.4
549.464	11.61
549.661	11.57
549.858	11.89
550.055	11.9
550.251	11.91
550.448	11.93
550.645	12.17
550.842	12.33
551.038	12.41
551.235	12.55
551.432	12.78
551.628	12.79
551.825	13.13
552.022	12.99
552.218	13.15
552.415	13.18
552.612	13.28
552.808	13.14
553.005	13.16
553.201	13.22
553.398	13.35
553.594	13.27
553.791	13.34
553.987	13.45
554.184	13.46
554.38	13.43
554.577	13.54
554.773	13.71
554.97	13.82
555.166	14
555.362	13.98
555.559	13.95
555.755	14.1
555.952	14.28
556.148	14.21
556.344	14.45
556.541	14.62
556.737	14.68
556.933	14.59
557.129	14.53
557.326	14.58
557.522	14.76
557.718	14.88
557.914	15
558.11	14.89
558.307	15.01
558.503	15.04
558.699	15.41
558.895	15.57
559.091	15.74
559.287	16.04
559.483	16.07
559.679	16.2
559.876	16.3
560.072	16.39
560.268	16.52
560.464	16.61
560.66	16.79
560.856	16.72
561.052	16.72
561.247	16.95
561.443	16.96
561.639	17.05
561.835	17.06
562.031	17.12
562.227	17.19
562.423	17.3
562.619	17.48
562.815	17.51
563.01	17.61
563.206	17.9
563.402	17.82
563.598	18.01
563.793	18.16
563.989	18.39
564.185	18.49
564.381	18.71
564.576	19.12
564.772	19.35
564.968	19.54
565.163	19.63
565.359	19.6
565.555	19.74
565.75	20.02
565.946	20.13
566.141	20.11
566.337	20.25
566.532	20.36
566.728	20.32
566.923	20.29
567.119	20.31
567.314	20.36
567.51	20.46
567.705	20.46
567.901	20.28
568.096	20.38
568.292	20.33
568.487	20.31
568.682	20.35
568.878	20.32
569.073	20.47
569.268	20.56
569.464	20.63
569.659	20.74
569.854	20.98
570.05	21.26
570.245	21.36
570.44	21.74
570.635	21.95
570.831	22.14
571.026	22.34
571.221	22.51
571.416	22.61
571.611	22.83
571.806	22.85
572.002	22.99
572.197	23.02
572.392	23.17
572.587	23.18
572.782	23.15
572.977	23.03
573.172	23.08
573.367	23.06
573.562	23.26
573.757	23.36
573.952	23.55
574.147	23.52
574.342	23.64
574.537	23.79
574.732	23.86
574.927	23.84
575.121	24.14
575.316	24.28
575.511	24.16
575.706	24.26
575.901	24.24
576.096	24.32
576.29	24.58
576.485	24.56
576.68	24.43
576.875	24.56
577.069	24.72
577.264	24.58
577.459	24.56
577.654	24.88
577.848	24.83
578.043	25.12
578.238	25.18
578.432	24.88
578.627	25.12
578.821	25.33
579.016	25.32
579.21	25.68
579.405	25.85
579.6	25.84
579.794	25.89
579.989	25.89
580.183	25.67
580.378	25.81
580.572	26.22
580.766	26.21
580.961	26.22
581.155	26.06
581.35	25.83
581.544	26.02
581.738	26.16
581.933	26.17
582.127	26.31
582.321	26.47
582.516	26.64
582.71	26.63
582.904	26.53
583.099	26.58
583.293	26.96
583.487	27.1
583.681	27.12
583.875	27.14
584.07	27.4
584.264	27.24
584.458	27.31
584.652	27.18
584.846	27.28
585.04	27.51
585.234	27.58
585.428	27.7
585.623	27.77
585.817	27.81
586.011	27.9
586.205	27.72
586.399	27.99
586.593	27.76
586.787	27.79
586.981	27.89
587.174	27.84
587.368	27.91
587.562	27.69
587.756	27.71
587.95	27.66
588.144	27.56
588.338	27.76
588.532	27.92
588.725	28.13
588.919	28.14
589.113	28.2
589.307	28.11
589.501	28.11
589.694	28.3
589.888	28.66
590.082	28.92
590.275	28.99
590.469	28.85
590.663	28.98
590.856	29.09
591.05	29.11
591.244	28.91
591.437	29
591.631	29.1
591.824	28.86
592.018	28.55
592.212	28.26
592.405	28.25
592.599	28.45
592.792	28.18
592.986	28.27
593.179	28.38
593.372	28.64
593.566	28.88
593.759	28.99
593.953	29.2
594.146	29.08
594.339	29.3
594.533	29.48
594.726	29.51
594.92	29.34
595.113	29.15
595.306	29.13
595.499	28.9
595.693	28.94
595.886	28.98
596.079	29.13
596.272	29.25
596.466	29.31
596.659	29.31
596.852	29.21
597.045	29.37
597.238	29.41
597.431	29.45
597.624	29.69
597.818	29.68
598.011	29.56
598.204	29.55
598.397	29.6
598.59	29.49
598.783	29.36
598.976	29.45
599.169	29.58
599.362	29.5
599.555	29.56
599.748	29.68
599.941	29.42
600.134	29.41
600.326	29.36
600.519	29.3
600.712	29.26
600.905	29.49
601.098	29.48
601.291	29.59
601.483	29.9
601.676	29.9
601.869	29.67
602.062	29.97
602.255	30.12
602.447	30.25
602.64	30.33
602.833	30.29
603.025	30.44
603.218	30.29
603.411	30.19
603.603	30.12
603.796	30.11
603.989	30.14
604.181	30.06
604.374	30.09
604.566	30.1
604.759	30.08
604.951	30.21
605.144	30.21
605.336	30.4
605.529	30.47
605.721	30.57
605.914	30.53
606.106	30.47
606.299	30.65
606.491	30.66
606.683	30.56
606.876	30.63
607.068	30.62
607.26	30.4
607.453	30.29
607.645	30.14
607.837	30.2
608.03	30.51
608.222	30.62
608.414	30.37
608.606	30.52
608.799	30.72
608.991	30.86
609.183	30.94
609.375	31.11
609.567	31.21
609.759	31.19
609.952	31.15
610.144	31.02
610.336	31.12
610.528	31.24
610.72	31.13
610.912	31.06
611.104	31.03
611.296	31.07
611.488	31.01
611.68	31.11
611.872	31.24
612.064	31.37
612.256	31.36
612.448	31.38
612.64	31.63
612.832	31.88
613.023	32
613.215	32.24
613.407	32.13
613.599	32.14
613.791	32.04
613.983	32.16
614.174	31.76
614.366	31.79
614.558	31.65
614.75	31.48
614.941	31.23
615.133	31.31
615.325	30.95
615.516	31.26
615.708	31.3
615.9	31.25
616.091	31.36
616.283	31.73
616.475	31.73
616.666	32.07
616.858	32.29
617.049	32.32
617.241	32.12
617.432	32.18
617.624	32.05
617.815	32.29
618.007	32.13
618.198	31.94
618.39	31.86
618.581	32.05
618.773	31.85
618.964	31.83
619.155	32.12
619.347	32.15
619.538	32.19
619.729	32.36
619.921	32.44
620.112	32.67
620.303	32.75
620.494	32.85
620.686	32.94
620.877	32.93
621.068	32.61
621.259	32.51
621.451	32.75
621.642	32.75
621.833	32.87
622.024	32.73
622.215	32.72
622.406	32.71
622.597	32.54
622.788	32.27
622.98	32.19
623.171	32.32
623.362	32.16
623.553	32.01
623.744	32.28
623.935	32.06
624.126	32.28
624.317	32.44
624.508	32.46
624.698	32.76
624.889	32.87
625.08	32.86
625.271	33.2
625.462	33.27
625.653	33.12
625.844	33.07
626.034	33.24
626.225	33.13
626.416	33.35
626.607	33.53
626.798	33.41
626.988	33.66
627.179	33.7
627.37	33.4
627.56	33.43
627.751	33.66
627.942	33.62
628.132	33.5
628.323	33.39
628.514	33.13
628.704	33.16
628.895	33
629.085	32.97
629.276	32.93
629.466	33.08
629.657	33.03
629.847	33.07
630.038	33.13
630.228	33.28
630.419	33.16
630.609	33.34
630.8	33.28
630.99	33.62
631.181	33.48
631.371	33.67
631.561	33.54
631.752	33.52
631.942	33.54
632.132	33.33
632.323	33.21
632.513	33.28
632.703	33.05
632.893	32.83
633.084	32.7
633.274	32.92
633.464	33.17
633.654	33.24
633.844	33.26
634.034	33.12
634.225	33.49
634.415	33.54
634.605	33.51
634.795	33.69
634.985	33.74
635.175	33.71
635.365	33.52
635.555	33.36
635.745	33.55
635.935	33.64
636.125	33.77
636.315	33.66
636.505	33.69
636.695	33.8
636.885	33.6
637.075	33.75
637.265	34.14
637.455	34.19
637.644	34.24
637.834	33.98
638.024	34
638.214	33.88
638.404	34
638.593	33.72
638.783	33.92
638.973	34.23
639.163	34.17
639.352	33.86
639.542	33.56
639.732	33.63
639.921	33.81
640.111	33.69
640.301	33.89
640.49	33.61
640.68	33.59
640.87	33.47
641.059	33.46
641.249	33.54
641.438	33.6
641.628	33.7
641.817	33.83
642.007	33.93
642.196	33.98
642.386	33.83
642.575	34.23
642.764	34.92
642.954	34.96
643.143	35
643.333	35.02
643.522	35.17
643.711	35.37
643.901	34.83
644.09	34.9
644.279	35
644.469	35.24
644.658	35.1
644.847	34.84
645.036	34.75
645.226	34.89
645.415	34.97
645.604	34.84
645.793	34.96
645.982	35.23
646.171	35.1
646.361	35.2
646.55	34.93
646.739	34.63
646.928	34.47
647.117	34.54
647.306	34.14
647.495	34.08
647.684	34.22
647.873	34.23
648.062	34.4
648.251	34.73
648.44	34.56
648.629	34.67
648.818	35.01
649.007	35.05
649.196	35.27
649.384	35.35
649.573	35.16
649.762	35.01
649.951	35.01
650.14	34.88
650.328	34.31
650.517	34.46
650.706	34.44
650.895	34.31
651.083	34.36
651.272	33.69
651.461	33.73
651.65	34.09
651.838	34.05
652.027	33.84
652.216	33.35
652.404	33.27
652.593	33.19
652.781	32.88
652.97	32.84
653.158	32.94
653.347	33.66
653.535	33.5
653.724	33.35
653.912	33.73
654.101	34
654.289	34.47
654.478	34.94
654.666	35.1
654.855	35.65
655.043	35.82
655.231	35.73
655.42	35.55
655.608	35.8
655.796	35.69
655.985	35.65
656.173	35.66
656.361	35.8
656.55	35.69
656.738	35.64
656.926	35.34
657.114	35.41
657.302	35.31
657.491	35.3
657.679	35.42
657.867	35.61
658.055	35.39
658.243	35.48
658.431	35.91
658.619	36.04
658.807	35.8
658.996	36.01
659.184	35.76
659.372	35.46
659.56	35.55
659.748	35.34
659.936	35.25
660.124	35.39
660.311	35.43
660.499	35.01
660.687	35.01
660.875	35.36
661.063	35.49
661.251	35.58
661.439	35.77
661.627	35.65
661.814	35.61
662.002	35.68
662.19	35.74
662.378	35.6
662.565	35.58
662.753	35.31
662.941	34.94
663.129	34.5
663.316	34.28
663.504	34.59
663.692	34.61
663.879	34.76
664.067	34.95
664.254	34.92
664.442	34.81
664.63	34.68
664.817	34.95
665.005	34.97
665.192	35.13
665.38	35.36
665.567	35.5
665.755	35.75
665.942	35.92
666.13	35.83
666.317	35.55
666.504	35.32
666.692	35.23
666.879	35.37
667.067	35.81
667.254	35.81
667.441	36.19
667.629	35.82
667.816	35.48
668.003	35.17
668.19	35.54
668.378	35.7
668.565	35.85
668.752	36.35
668.939	36.27
669.127	36.05
669.314	35.95
669.501	35.45
669.688	35.93
669.875	36.16
670.062	36.56
670.249	36.06
670.436	36
670.623	36.26
670.81	36.03
670.997	35.92
671.184	35.76
671.371	36.21
671.558	36.62
671.745	36.71
671.932	36.73
672.119	36.34
672.306	36.49
672.493	36.38
672.68	36.54
672.867	36.95
673.054	36.8
673.24	37.24
673.427	37.08
673.614	36.96
673.801	36.81
673.988	36.99
674.174	37.5
674.361	37.52
674.548	38.16
674.734	37.78
674.921	37.4
675.108	37.5
675.294	37.69
675.481	37.67
675.668	37.75
675.854	37.7
676.041	37.64
676.227	37.52
676.414	37.7
676.601	37.16
676.787	37.26
676.974	37
677.16	37.45
677.347	37.33
677.533	37.15
677.719	36.9
677.906	36.81
678.092	36.81
678.279	36.64
678.465	36.5
678.651	36.55
678.838	36.18
679.024	36.69
679.21	36.5
679.397	36.27
679.583	36.38
679.769	36.49
679.955	36.51
680.142	36.45
680.328	36.71
680.514	36.52
680.7	36.26
680.886	36.82
681.073	36.35
681.259	36.54
681.445	36.58
681.631	36.43
681.817	36.51
682.003	36.25
682.189	35.93
682.375	35.74
682.561	35.91
682.747	36.67
682.933	35.87
683.119	36.22
683.305	36.15
683.491	36.23
683.677	36.65
683.863	36.49
684.049	36.72
684.235	37.16
684.42	36.95
684.606	36.98
684.792	36.89
684.978	37.73
685.164	37.54
685.349	37.84
685.535	37.79
685.721	37.26
685.907	37.3
686.092	37.4
686.278	37.52
686.464	37.81
686.649	37.68
686.835	37.5
687.021	37.27
687.206	37.15
687.392	36.75
687.577	36.92
687.763	37.24
687.948	37.48
688.134	37.54
688.319	37.09
688.505	37.03
688.69	37.09
688.876	37
689.061	36.55
689.247	36.65
689.432	36.52
689.618	36.43
689.803	36.54
689.988	36.48
690.174	36.52
690.359	36.87
690.544	37.03
690.73	37.23
690.915	37.58
691.1	38.19
691.285	38.67
691.471	39.2
691.656	39.18
691.841	38.9
692.026	38.63
692.211	38.29
692.396	38.27
692.582	38.04
692.767	37.78
692.952	37.15
693.137	36.99
693.322	36.62
693.507	36.18
693.692	36.28
693.877	36.04
694.062	36.01
694.247	35.95
694.432	36.31
694.617	36.51
694.802	36.68
694.987	37.28
695.172	36.98
695.357	36.7
695.541	36.71
695.726	36.98
695.911	37.36
696.096	37.43
696.281	37.97
696.466	37.73
696.65	37.95
696.835	38.37
697.02	37.8
697.204	38.28
697.389	38.87
697.574	39.02
697.759	38.46
697.943	38.7
698.128	38.63
698.312	38.27
698.497	37.94
698.682	37.93
698.866	38.05
699.051	38.1
699.235	37.97
699.42	37.69
699.604	37.47
699.789	37.26
699.973	37.14
700.158	37.09
700.342	37.36
700.527	37.56
700.711	37.12
700.895	36.42
701.08	36.65
701.264	36.64
701.448	36.94
701.633	36.57
701.817	36.87
702.001	36.5
702.186	36.96
702.37	37.06
702.554	37.23
702.738	37.1
702.923	37.43
703.107	37.24
703.291	37.59
703.475	37.14
703.659	38.04
703.843	38.3
704.027	39.01
704.212	38.72
704.396	38.97
704.58	38.88
704.764	38.81
704.948	38.09
705.132	38.19
705.316	37.41
705.5	37.32
705.684	36.84
705.868	36.79
706.052	36.94
706.235	37.23
706.419	36.4
706.603	36.61
706.787	36.9
706.971	37.34
707.155	37.29
707.339	38.33
707.522	38.69
707.706	38.75
707.89	39.2
708.074	38.6
708.257	38.16
708.441	38.98
708.625	38.38
708.808	38.96
708.992	39.38
709.176	39.37
709.359	38.89
709.543	38.69
709.727	38.53
709.91	38.14
710.094	38.21
710.277	38.31
710.461	37.65
710.644	38.07
710.828	37.48
711.011	38.1
711.195	38.01
711.378	37.65
711.562	38.22
711.745	38.13
711.928	38.04
712.112	37.51
712.295	37.76
712.478	37.38
712.662	37.68
712.845	37.81
713.028	36.65
713.212	36.91
713.395	37.07
713.578	36.68
713.761	36.99
713.945	37.27
714.128	38.27
714.311	38.49
714.494	39.02
714.677	38.85
714.86	39.1
715.043	39.61
715.227	39.09
715.41	39.44
715.593	39.45
715.776	39.51
715.959	39.42
716.142	39.07
716.325	38.78
716.508	39.08
716.691	39.09
716.874	38.53
717.057	38.74
717.239	39.5
717.422	39.32
717.605	40.23
717.788	40.4
717.971	40.3
718.154	40.78
718.337	40.62
718.519	39.6
718.702	39.34
718.885	40.07
719.068	39.45
719.25	39.67
719.433	39.94
719.616	38.79
719.798	38.4
719.981	38.92
720.164	38.37
720.346	39.17
720.529	38.8
720.712	38.36
720.894	38.1
721.077	38.19
721.259	37.91
721.442	37.87
721.624	37.47
721.807	37.1
721.989	36.49
722.172	36.94
722.354	35.91
722.537	37.47
722.719	38.4
722.901	38.15
723.084	38.66
723.266	37.69
723.448	37.97
723.631	39.26
723.813	40.12
723.995	40.65
724.178	39.92
724.36	40
724.542	39.83
724.724	39.93
724.907	40.36
725.089	40.46
725.271	41.05
725.453	40.13
725.635	39.72
725.817	40.89
725.999	40.54
726.181	40.72
726.364	41.6
726.546	41.31
726.728	40.74
726.91	40.96
727.092	40.8
727.274	40.49
727.456	40.83
727.638	40.48
727.819	39.2
728.001	39.32
728.183	39.06
728.365	38.65
728.547	39.35
728.729	40.16
728.911	39.43
729.093	39.38
729.274	39.74
729.456	39.85
729.638	39.4
729.82	39.46
730.001	39.07
730.183	39.05
730.365	39.16
730.546	38.37
730.728	37.57
730.91	37.7
731.091	37.9
731.273	37.32
731.455	37.23
731.636	37.4
731.818	37.29
731.999	37.35
732.181	37.17
732.362	37.31
732.544	37.18
732.725	37.35
732.907	38.13
733.088	38.4
733.27	38.36
733.451	38.3
733.633	38.64
733.814	39.06
733.995	38.81
734.177	38.85
734.358	38.93
734.539	39.22
734.721	38.11
734.902	38.25
735.083	37.57
735.264	38.94
735.446	38.69
735.627	38.94
735.808	37.99
735.989	38.73
736.17	39.3
736.351	38.49
736.533	38.73
736.714	40.16
736.895	38.77
737.076	39.53
737.257	38.32
737.438	38.53
737.619	38.03
737.8	38.68
737.981	37.8
738.162	37.83
738.343	38.1
738.524	39.06
738.705	39.07
738.886	39.38
739.067	38.42
739.247	38.72
739.428	38.57
739.609	39.11
739.79	39.32
739.971	39.53
740.151	38.94
740.332	39.51
740.513	38.24
740.694	38.08
740.874	38.04
741.055	39.65
741.236	40.84
741.417	41.41
741.597	40.81
741.778	40.21
741.958	40.89
742.139	41.44
742.32	40.75
742.5	41.26
742.681	41.41
742.861	42.04
743.042	41.11
743.222	40.24
743.403	39.81
743.583	40.29
743.764	41.14
743.944	41.04
744.124	40.69
744.305	41.68
744.485	41.39
744.666	40.9
744.846	40.36
745.026	39.57
745.207	39.25
745.387	39.8
745.567	39.29
745.747	39.03
745.928	39.16
746.108	39.45
746.288	38.32
746.468	38.22
746.648	39.11
746.829	38.53
747.009	39.11
747.189	39.09
747.369	39.1
747.549	39.04
747.729	38.08
747.909	37.53
748.089	37.79
748.269	39.06
748.449	39.44
748.629	39.18
748.809	40.86
748.989	40.36
749.169	40.85
749.349	40.3
749.529	41.15
749.709	41.55
749.889	41.84
750.068	41.12
750.248	40.44
750.428	40.37
750.608	40.73
750.788	39.52
750.967	40.21
751.147	40.26
751.327	39.76
751.507	39.16
751.686	39.38
751.866	40.03
752.046	40.58
752.225	40.85
752.405	40.3
752.585	39.5
752.764	39.83
752.944	39.01
753.123	38.59
753.303	39.71
753.482	39.47
753.662	39.1
753.841	38.66
754.021	38.31
754.2	37.7
754.38	37.6
754.559	38.25
754.739	37.76
754.918	37.45
755.097	37.4
755.277	36.44
755.456	36.77
755.635	37.07
755.815	37.33
755.994	37.35
756.173	37.15
756.352	37.91
756.532	37.59
756.711	39.56
756.89	40.08
757.069	40.36
757.248	40.6
757.427	40.86
757.607	41.29
757.786	41.11
757.965	41.75
758.144	41.63
758.323	40.95
758.502	41.39
758.681	39.99
758.86	39.9
759.039	40.3
759.218	40.36
759.397	40.09
759.576	40.01
759.755	39.31
759.934	38.79
760.113	38.79
760.291	39.78
760.47	38.78
760.649	39.44
760.828	38.58
761.007	38.37
761.186	38.83
761.364	38.51
761.543	38.6
761.722	38.88
761.901	38.51
762.079	38.98
762.258	37.87
762.437	38.15
762.615	38.32
762.794	39.74
762.972	39
763.151	38.36
763.33	38.74
763.508	37.98
763.687	37.93
763.865	38.73
764.044	39.48
764.222	40.11
764.401	40.18
764.579	40.03
764.758	38.82
764.936	39.45
765.114	40.04
765.293	39.97
765.471	40.62
765.65	41.07
765.828	41.18
766.006	40.17
766.184	39.59
766.363	39.37
766.541	38.3
766.719	39.85
766.898	39.79
767.076	39.49
767.254	40.04
767.432	39.72
767.61	39.9
767.788	39.1
767.967	39.75
768.145	40.3
768.323	40.73
768.501	42.04
768.679	41.13
768.857	41.15
769.035	41.31
769.213	41.15
769.391	41.43
769.569	40.65
769.747	40.43
769.925	40.67
770.103	40.86
770.281	41.26
770.459	40.75
770.636	41.7
770.814	42.14
770.992	41.54
771.17	41.29
771.348	41
771.525	39.99
771.703	39.77
771.881	39.66
772.059	39.07
772.236	37.01
772.414	37.35
772.592	36
772.769	34.21
772.947	34.88
773.125	35.78
773.302	36.48
773.48	37.04
773.657	37.66
773.835	37.16
774.013	38.24
774.19	39.31
774.368	39.45
774.545	41.11
774.723	41.7
774.9	42.1
775.077	41.78
775.255	40.33
775.432	41.59
775.61	41.69
775.787	39.83
775.964	38.85
776.142	40.64
776.319	41.44
776.496	39.9
776.674	40.78
776.851	40.32
777.028	39.22
777.205	40.66
777.382	39.9
777.56	40.5
777.737	41.07
777.914	41.02
778.091	40.92
778.268	40.08
778.445	41.61
778.622	42.4
778.8	44.26
778.977	44.88
779.154	46.75
779.331	47.06
779.508	47.35
779.685	47.21
779.862	49.04
780.038	47.42
780.215	47.03
780.392	46.24
780.569	44.44
780.746	41.28
780.923	41.86
781.1	38.77
781.277	38.91
781.453	37.74
781.63	38.74
781.807	37.8
781.984	38.23
782.16	40.38
782.337	40.07
782.514	40.46
782.691	41.6
782.867	40.33
783.044	40.65
783.221	40.31
783.397	40.84
783.574	42.31
783.75	41.88
783.927	41.92
784.103	40.75
784.28	40.09
784.456	39.04
784.633	39.14
784.809	39.14
784.986	38.98
785.162	39.53
785.339	38.72
785.515	38.18
785.692	37.5
785.868	37.27
786.044	34.85
786.221	35.26
786.397	37.38
786.573	36.91
786.749	38.29
786.926	37.72
787.102	37.6
787.278	36.98
787.454	37.28
787.631	38.44
787.807	38.9
787.983	39.93
788.159	40.44
788.335	39.75
788.511	41.48
788.687	41.94
788.863	43.97
789.039	44.59
789.216	45.36
789.392	45.61
789.568	45.94
789.744	47.48
789.919	48.86
790.095	47.8
790.271	47.79
790.447	46.82
790.623	46.17
790.799	44.63
790.975	44.01
791.151	44.72
791.327	43.49
791.502	42.36
791.678	41.3
791.854	40.65
792.03	42.51
792.205	42.02
792.381	42.38
792.557	42.54
792.733	42.32
792.908	42.85
793.084	42.57
793.259	42.19
793.435	44.11
793.611	41.71
793.786	41.5
793.962	41.01
794.137	41.19
794.313	40.62
794.488	39.84
794.664	40.6
794.839	38.49
795.015	37.64
795.19	37.62
795.366	37.58
795.541	39.07
795.716	39.13
795.892	38.09
796.067	38.77
796.242	38.4
796.418	38.57
796.593	38.17
796.768	39.52
796.944	40.38
797.119	40.16
797.294	39.49
797.469	37.89
797.644	37.76
797.82	38.87
797.995	37.97
798.17	39.55
798.345	38.48
798.52	38.02
798.695	36.65
798.87	39
799.045	40.88
799.22	38.71
799.395	40.16
799.57	41.18
799.745	40.09
799.92	40.14
800.095	40.61
800.27	41.98
800.445	43.97
800.62	46.21
800.795	44.31
800.97	42.25
801.145	43.81
801.319	41.86
801.494	39.76
801.669	41.27
801.844	42.54
802.018	39.32
802.193	39.06
802.368	38.38
802.543	37.15
802.717	34.42
802.892	37.58
803.067	37.02
803.241	36.84
803.416	35.71
803.59	35.13
803.765	33.24
803.94	32.72
804.114	32.68
804.289	32.16
804.463	31.89
804.638	32.37
804.812	30.46
804.986	32.56
805.161	33.93
805.335	35.95
805.51	37.65
805.684	36.66
805.858	39.17
806.033	39.4
806.207	39.43
806.381	40.57
806.556	42.51
806.73	42.96
806.904	42.45
807.078	45.5
807.253	46.3
807.427	44.1
807.601	47.59
807.775	45.52
807.949	43.32
808.123	43.44
808.298	43.39
808.472	42.93
808.646	41.03
808.82	40.69
808.994	37.12
809.168	35.4
809.342	37.27
809.516	36.07
809.69	39.15
809.864	40.95
810.038	43.25
810.212	43.3
810.385	43.35
810.559	46.27
810.733	47
810.907	49.01
811.081	50.17
811.255	46.51
811.428	47.81
811.602	46.46
811.776	46.73
811.95	44.47
812.123	44.35
812.297	43.17
812.471	41.89
812.644	40.53
812.818	42.4
812.992	41.77
813.165	42.71
813.339	41.42
813.512	41.12
813.686	38.51
813.86	37.05
814.033	35.68
814.207	39.07
814.38	37.96
814.554	37.3
814.727	37.66
814.9	38.22
815.074	41.15
815.247	39.14
815.421	36.86
815.594	35.55
815.767	40.13
815.941	40.51
816.114	40.82
816.287	41.74
816.46	45.82
816.634	42.58
816.807	40.26
816.98	40.18
817.153	41.02
817.327	45.06
817.5	47.65
817.673	44.03
817.846	46.13
818.019	45.55
818.192	46.56
818.365	41.22
818.538	40.17
818.711	40.4
818.884	39.61
819.057	41
819.23	39.74
819.403	38.87
819.576	37.81
819.749	38.48
819.922	37.58
820.095	35.93
820.268	37.67
820.441	37.96
820.614	38.91
820.786	37.68
820.959	37.69
821.132	38.59
821.305	39.65
821.477	40.22
821.65	39.5
821.823	39
821.996	39.81
822.168	39.78
822.341	39.87
822.514	39.46
822.686	40.05
822.859	39.64
823.031	39.49
823.204	39.62
823.376	39.43
823.549	39.26
823.722	39.44
823.894	39.09
824.067	39.13
824.239	39.22
824.411	39.49
824.584	39.57
824.756	39.36
824.929	39.04
825.101	38.92
825.273	39.59
825.446	39.57
825.618	39.93
825.79	39.8
825.963	39.73
826.135	39.47
826.307	39.89
826.479	39.81
826.652	40.36
826.824	40.48
826.996	40.2
827.168	39.96
827.34	40.15
827.512	39.94
827.684	40.63
827.856	40.28
828.029	41.06
828.201	39.94
828.373	40.17
828.545	39.84
828.717	40.13
828.889	39.9
829.061	40.28
829.232	40.72
829.404	41.15
829.576	40.85
829.748	41.55
829.92	40.34
830.092	41.63
830.264	40.93
830.436	41.06
830.607	39.86
830.779	39.07
830.951	36.84
831.123	35
831.294	34.21
831.466	35
831.638	34.43
831.809	34.77
831.981	33.29
832.153	32.99
832.324	35.97
832.496	37.55
832.667	41.28
832.839	41.83
833.011	43.4
833.182	42.27
833.354	40.76
833.525	39.76
833.697	40.48
833.868	43.22
834.039	43.98
834.211	42.94
834.382	42.18
834.554	40.98
834.725	41.27
834.896	40.31
835.068	39.49
835.239	39.06
835.41	40.06
835.581	40.65
835.753	38.46
835.924	37.93
836.095	36.91
836.266	36.82
836.438	35.28
836.609	34.66
836.78	35.87
836.951	35.51
837.122	34.22
837.293	33.86
837.464	32.87
837.635	35.29
837.806	35.62
837.977	36.44
838.148	38.01
838.319	37.62
838.49	37.93
838.661	38.59
838.832	39.86
839.003	43.53
839.174	45.39
839.345	45.47
839.516	42.05
839.687	40.53
839.857	39.58
840.028	31.13
840.199	28.96
840.37	31.36
840.54	29.49
840.711	28.03
840.882	24.61
841.053	25.93
841.223	27.77
841.394	24.34
841.564	27.38
841.735	27.14
841.906	35.16
842.076	40.32
842.247	39.67
842.417	39.41
842.588	38.42
842.758	38.64
842.929	35.42
843.099	30.35
843.27	38.96
843.44	38.65
843.611	41.52
843.781	41.63
843.951	40.66
844.122	40.34
844.292	40.24
844.462	41.31
844.633	39.21
844.803	38.81
844.973	41.01
845.144	39.63
845.314	33.25
845.484	30.06
845.654	32.44
845.824	35.54
845.995	35.17
846.165	31.3
846.335	33.87
846.505	35.6
846.675	36.35
846.845	48.98
847.015	39.19
847.185	41.24
847.355	38.99
847.525	39.02
847.695	39.61
847.865	39.54
848.035	35.92
848.205	34.4
848.375	40.9
848.545	42.9
848.715	31.11
848.884	41.55
849.054	48.41
849.224	48.64
849.394	54.02
849.564	53.85
849.733	54.56
849.903	61.53
850.073	64.01
850.243	60
850.412	58.18
850.582	62.21
850.752	57.74
850.921	49
851.091	46.52
851.26	42.16
851.43	43.17
851.599	43.07
851.769	44.77
851.939	43.78
852.108	49.52
852.278	53.6
852.447	52.56
852.616	51.28
852.786	64.39
852.955	66.09
853.125	61.45
853.294	62.08
853.463	55.09
853.633	49.96
853.802	56.64
853.971	58.95
854.141	59.13
854.31	60.95
854.479	54.35
854.648	44.73
854.818	39.67
854.987	47.8
855.156	45.35
855.325	48.06
855.494	50.56
855.663	41.46
855.832	16.89
856.001	9.38
856.171	9.17
856.34	3.71
856.509	0.88
856.678	10.61
856.847	8.52
857.016	6.23
857.185	10.06
857.353	-2.6
857.522	4.62
857.691	23.37
857.86	24.92
858.029	20.98
858.198	34.68
858.367	31.63
858.535	29.96
858.704	31.04
858.873	29
859.042	23.17
859.21	31.33
859.379	19.08
859.548	14.01
859.717	11.98
859.885	22.92
860.054	18.52
860.222	13.32
860.391	22.83
860.56	22.56
860.728	30.71
860.897	28.94
861.065	23.37
861.234	32.31
861.402	30.14
861.571	38.31
861.739	32.44
861.908	32.24
862.076	35.01
862.244	27.87
862.413	27.15
862.581	15.62
862.749	28.55
862.918	41.87
863.086	44.89
863.254	47.2
863.423	34.17
863.591	30.02
863.759	30.93
863.927	39.82
864.096	42.32
864.264	38.94
864.432	45.45
864.6	53.76
864.768	45.42
864.936	43.58
865.104	40.71
865.272	59.7
865.44	64.55
865.608	59.48
865.776	46.45
865.944	39.11
866.112	44.77
866.28	49.62
866.448	42.1
866.616	45.6
866.784	31.31
866.952	38.64
867.12	28.51
867.288	33.11
867.455	40.27
867.623	39.48
867.791	46.42
867.959	44.72
868.127	44.73
868.294	46.59
868.462	51.18
868.63	55.02
868.797	53.85
868.965	62.86
869.133	54.44
869.3	64.4
869.468	69.97
869.636	70.06
869.803	69.31
869.971	64.96
870.138	56.79
870.306	59.99
870.473	56.41
870.641	51.55
870.808	42.87
870.975	43.33
871.143	24.37
871.31	25.55
871.478	30.48
871.645	35.73
871.812	38.24
871.98	43.87
872.147	43.61
872.314	54.84
872.482	56.38
872.649	57.27
872.816	60.88
872.983	67.88
873.15	58.08
873.318	57.75
873.485	49.36
873.652	44.38
873.819	45.93
873.986	43.92
874.153	43.87
874.32	40.09
874.487	39.74
874.654	38.31
874.821	38.4
874.988	41.54
875.155	39.93
875.322	43.01
875.489	45.35
875.656	31.81
875.823	20.12
875.99	24.96
876.157	30.13
876.324	35.58
876.49	27.81
876.657	26.58
876.824	28.64
876.991	31.26
877.157	33.36
877.324	32.11
877.491	45.39
877.658	47.89
877.824	50.7
877.991	53.26
878.157	47.54
878.324	54.22
878.491	58.51
878.657	60.99
878.824	59.23
878.99	49.48
879.157	51.82
879.323	35.36
879.49	40.35
879.656	34.57
879.823	27.35
879.989	33.73
880.156	36.47
880.322	27.34
880.488	26.34
880.655	23.09
880.821	27.12
880.987	27.8
881.154	35.85
881.32	42.98
881.486	41.08
881.652	43.25
881.819	41.36
881.985	40.32
882.151	41.82
882.317	40.33
882.483	39.69
882.649	39.94
882.816	38.06
882.982	39.01
883.148	37.85
883.314	38.88
883.48	38.56
883.646	39.56
883.812	40.49
883.978	41.26
884.144	42
884.31	42.96
884.476	41.78
884.642	43.12
884.807	41.76
884.973	42.25
885.139	42.23
885.305	41.67
885.471	40.83
885.637	40.41
885.802	39.2
885.968	39.8
886.134	38.55
886.3	39.32
886.465	38.3
886.631	35.83
886.797	35.94
886.962	36.39
887.128	39.62
887.293	38.52
887.459	36.77
887.625	39.58
887.79	37.5
887.956	35.29
888.121	36.91
888.287	37.92
888.452	44.36
888.618	38.73
888.783	33.97
