Data from 2938013_Reflection_3.txt Node
Date: Sun Jul 12 15:40:20 EDT 2015
User: robert
Spectrometer: USB4E03001
Autoset integration time: false
Trigger mode: 4
Integration Time (sec): 1.000000E-1
Scans to average: 10
Electric dark correction enabled: true
Nonlinearity correction enabled: false
Boxcar width: 5
Stray light correction enabled: false
XAxis mode: Wavelengths
Stop averaging: false
Number of Pixels in Spectrum: 3648
>>>>>Begin Spectral Data<<<<<
177.566	5.76
177.785	37.36
178.005	35.98
178.225	1.61
178.445	-30.53
178.665	-95.77
178.885	-253.68
179.105	-22.62
179.324	2.39
179.544	33.01
179.764	50.51
179.984	129.46
180.204	246.47
180.423	257.87
180.643	328.32
180.863	333.13
181.083	492.14
181.302	804.88
181.522	-858.92
181.742	-312.89
181.961	-91.94
182.181	-102.05
182.401	-49.63
182.621	-54.06
182.84	-16.88
183.06	6.33
183.279	-7.62
183.499	1.22
183.719	26.03
183.938	-8.06
184.158	8.69
184.377	-37.94
184.597	-17.17
184.816	-3.45
185.036	5.03
185.256	16.19
185.475	16.1
185.695	69.72
185.914	43.63
186.134	36.33
186.353	29.43
186.572	30.47
186.792	44.57
187.011	27.68
187.231	21.15
187.45	13.78
187.67	35.77
187.889	49.11
188.108	28.05
188.328	35.21
188.547	22.65
188.766	46.73
188.986	-9.91
189.205	-24.43
189.424	-50.18
189.644	-253.79
189.863	-147.48
190.082	-37.44
190.302	-119.07
190.521	8532.26
190.74	542.63
190.959	357.87
191.178	379.2
191.398	715.43
191.617	-925.09
191.836	-621.17
192.055	-356.53
192.274	-547.88
192.494	-353.66
192.713	-606.4
192.932	-225.53
193.151	-68.13
193.37	30.41
193.589	-168.56
193.808	27.41
194.027	-25.86
194.246	-60.87
194.465	100.37
194.685	-525.3
194.904	20.18
195.123	-41.48
195.342	140.12
195.561	81.17
195.78	308.09
195.999	-218.8
196.218	-235.15
196.436	-196.45
196.655	-173.33
196.874	-64.15
197.093	-57.17
197.312	-0.95
197.531	-4.32
197.75	-0.14
197.969	16.4
198.188	44.87
198.407	28.62
198.625	49.34
198.844	26.5
199.063	32.91
199.282	18.34
199.501	-20.61
199.719	-12.28
199.938	-3.61
200.157	-64.89
200.376	-86.25
200.594	-230.56
200.813	2247.71
201.032	-222.98
201.251	-158.69
201.469	2577.65
201.688	369.24
201.907	232.75
202.125	224.13
202.344	291.91
202.563	284.18
202.781	136.49
203	138.28
203.218	150.75
203.437	127.69
203.656	98.82
203.874	128.82
204.093	115.77
204.311	92.22
204.53	60.26
204.748	87.08
204.967	82.7
205.185	7.37
205.404	-250.34
205.622	-45.45
205.841	264.23
206.059	390.2
206.278	227.98
206.496	265.36
206.715	-3035.14
206.933	-265.86
207.151	-209.61
207.37	-451.43
207.588	-798.97
207.806	-517.52
208.025	-1707.11
208.243	-1054.99
208.461	-755.2
208.68	-6341.92
208.898	-810.47
209.116	-435.83
209.335	-200.16
209.553	-2088.19
209.771	1515.46
209.989	3510.12
210.208	1187.82
210.426	596.25
210.644	641.28
210.862	648.55
211.081	-148.22
211.299	-257.17
211.517	984.07
211.735	170
211.953	408.22
212.171	-179.91
212.39	-150.61
212.608	-44.59
212.826	27.65
213.044	40.42
213.262	38.87
213.48	72.65
213.698	80.06
213.916	65.33
214.134	54.11
214.352	40.03
214.57	40.9
214.788	58.51
215.006	42.74
215.224	-1.18
215.442	6.61
215.66	0.02
215.878	9.42
216.096	-6.38
216.314	40.29
216.532	9.53
216.75	39.17
216.968	10.83
217.185	1.78
217.403	3
217.621	52.55
217.839	66.38
218.057	68.01
218.275	80.14
218.492	85.45
218.71	111.98
218.928	112.4
219.146	175.27
219.363	113.05
219.581	244.4
219.799	208.43
220.017	35133.33
220.234	257.62
220.452	359.54
220.67	-5600
220.887	-890.71
221.105	-508.33
221.323	-430.08
221.54	-183.72
221.758	-424.34
221.976	-148.69
222.193	-87.02
222.411	-86.81
222.629	-40.12
222.846	-76.03
223.064	-110.4
223.281	-278.85
223.499	-294.46
223.716	-205.51
223.934	-69.74
224.151	-16.38
224.369	-38.6
224.586	-84.21
224.804	-57.88
225.021	-96.5
225.239	-78.74
225.456	-53.91
225.674	-29.7
225.891	-15.08
226.108	-19.64
226.326	-60.27
226.543	-60.29
226.76	-41.61
226.978	-27.42
227.195	-44.27
227.413	-40.58
227.63	-21.27
227.847	-16.4
228.064	-8.28
228.282	-8.55
228.499	-3.88
228.716	-0.81
228.934	4.61
229.151	6.1
229.368	10.08
229.585	9.39
229.802	14.24
230.02	14.21
230.237	13.58
230.454	11.55
230.671	13.61
230.888	8.01
231.105	3.42
231.323	-1.56
231.54	-1.36
231.757	-0.7
231.974	6.81
232.191	4.96
232.408	2.61
232.625	3.26
232.842	3.3
233.059	-11.72
233.276	-3.4
233.493	-8.87
233.71	-9.15
233.927	-24.8
234.144	-34.29
234.361	-22.55
234.578	-20.08
234.795	-16.41
235.012	-12.62
235.229	-11.04
235.446	-0.53
235.663	2.27
235.879	14.99
236.096	13.62
236.313	16.97
236.53	21.28
236.747	19.59
236.964	19.39
237.181	11.91
237.397	11.83
237.614	8.54
237.831	8.4
238.048	6.66
238.264	-0.85
238.481	0.97
238.698	4.08
238.915	-4.83
239.131	-4.96
239.348	1.23
239.565	-0.95
239.781	-0.7
239.998	5.27
240.215	9.24
240.431	10.88
240.648	17.06
240.865	16.38
241.081	14.75
241.298	15.92
241.514	14.65
241.731	8.53
241.947	11.36
242.164	6.87
242.38	4.93
242.597	4.49
242.814	8.91
243.03	6.96
243.246	9.26
243.463	9.47
243.679	8.44
243.896	8.79
244.112	11.4
244.329	13.78
244.545	14.31
244.762	19.03
244.978	18.2
245.194	13.99
245.411	11.43
245.627	9.34
245.843	11.08
246.06	10.46
246.276	11.46
246.492	11.88
246.709	9.93
246.925	11.13
247.141	8.14
247.357	9.58
247.574	8.92
247.79	8.96
248.006	8.91
248.222	8.09
248.439	6.64
248.655	4.75
248.871	4.07
249.087	5.59
249.303	5.67
249.519	8.25
249.736	6.06
249.952	6.36
250.168	8.58
250.384	8.88
250.6	8.19
250.816	12.94
251.032	15.1
251.248	12.4
251.464	10.69
251.68	9.49
251.896	6.56
252.112	8.34
252.328	9.81
252.544	9.57
252.76	8.92
252.976	9.06
253.192	9.54
253.408	8.64
253.624	10.74
253.84	10.22
254.056	14.57
254.272	15.93
254.487	16.36
254.703	13.98
254.919	13.9
255.135	15.04
255.351	15.11
255.567	15.67
255.782	19.03
255.998	21.4
256.214	21.07
256.43	18.58
256.646	21.38
256.861	19.8
257.077	19.8
257.293	16.47
257.508	18.33
257.724	17.73
257.94	13.52
258.155	9.99
258.371	8.6
258.587	8.74
258.802	9.88
259.018	9.6
259.234	9.77
259.449	10.17
259.665	11.23
259.88	9.66
260.096	9.28
260.312	9.76
260.527	9
260.743	8.56
260.958	8.63
261.174	6.11
261.389	5.88
261.605	4.8
261.82	4.53
262.036	3.09
262.251	2.95
262.466	2.55
262.682	2.46
262.897	4.58
263.113	4.09
263.328	4.36
263.543	6.89
263.759	4.58
263.974	4.39
264.189	3.59
264.405	5.3
264.62	5.31
264.835	4.75
265.051	4.02
265.266	3.57
265.481	3.42
265.696	3.08
265.912	3.26
266.127	1.75
266.342	2.42
266.557	1.67
266.773	1.41
266.988	3.8
267.203	3.22
267.418	1.81
267.633	2.01
267.848	3.27
268.064	3.83
268.279	5.78
268.494	7.02
268.709	7.11
268.924	8.56
269.139	8.54
269.354	8.25
269.569	11.33
269.784	13.8
269.999	13.38
270.214	11.88
270.429	10.47
270.644	8.19
270.859	7.16
271.074	6.54
271.289	6.57
271.504	6.78
271.719	5.24
271.934	4.85
272.149	5.49
272.363	5.1
272.578	5.37
272.793	4.7
273.008	5.81
273.223	8.83
273.438	9.55
273.653	7.28
273.867	8.06
274.082	9.94
274.297	7.93
274.512	6.22
274.726	7.08
274.941	8.46
275.156	9.59
275.371	8.83
275.585	6.69
275.8	6.16
276.015	8.81
276.229	7.74
276.444	6.31
276.659	8.19
276.873	8.95
277.088	7.1
277.302	4.61
277.517	4.5
277.732	3.89
277.946	4.78
278.161	4.69
278.375	3.73
278.59	3.38
278.804	3.08
279.019	1.66
279.233	0.38
279.448	1.23
279.662	3.5
279.877	3.93
280.091	3.54
280.306	2.62
280.52	3.24
280.735	0.4
280.949	1.07
281.163	2.1
281.378	1.72
281.592	2.41
281.806	3.4
282.021	2.36
282.235	2.22
282.449	2.43
282.664	1.82
282.878	2.96
283.092	5.86
283.307	5.4
283.521	4.36
283.735	5.53
283.949	7.03
284.164	6.86
284.378	7.26
284.592	8.19
284.806	9.2
285.02	8.13
285.234	6.76
285.449	6.66
285.663	7.08
285.877	8.55
286.091	8.26
286.305	7.13
286.519	6.87
286.733	7.9
286.947	6.92
287.161	7.23
287.375	10.3
287.589	10.06
287.803	9.68
288.017	9.52
288.231	7.39
288.445	7.82
288.659	7.41
288.873	7.08
289.087	6.71
289.301	7.04
289.515	5.03
289.729	4.59
289.943	6.22
290.157	6.96
290.371	6.62
290.584	9.69
290.798	10.49
291.012	11.4
291.226	12.53
291.44	12.08
291.654	11.89
291.867	15.03
292.081	14
292.295	13.22
292.509	12
292.722	13.84
292.936	8.78
293.15	7.47
293.364	5.83
293.577	5.77
293.791	7.07
294.005	5.84
294.218	3.84
294.432	3.41
294.645	3.22
294.859	3.62
295.073	3.83
295.286	7.19
295.5	7.5
295.713	8.94
295.927	8.32
296.14	8.15
296.354	9.52
296.568	9.99
296.781	10.82
296.994	11.61
297.208	11.08
297.421	10.34
297.635	8.22
297.848	8.39
298.062	9.86
298.275	11.12
298.489	10.47
298.702	9.18
298.915	9.62
299.129	9.28
299.342	7.03
299.555	8.41
299.769	7.8
299.982	10.07
300.195	8.23
300.409	7.81
300.622	5.94
300.835	6.88
301.048	9.79
301.262	9.58
301.475	8.66
301.688	13.36
301.901	12.58
302.115	14.31
302.328	11.7
302.541	12.14
302.754	9.94
302.967	11.2
303.18	11.91
303.393	10.44
303.607	9.84
303.82	10.46
304.033	8.42
304.246	10.9
304.459	8.45
304.672	10.81
304.885	12.67
305.098	15.56
305.311	16.33
305.524	15.17
305.737	16.93
305.95	18.13
306.163	18.94
306.376	19.61
306.589	18.42
306.802	20.11
307.015	19.34
307.228	20.06
307.44	17.62
307.653	15.69
307.866	15.37
308.079	11.88
308.292	10.98
308.505	11.13
308.718	9.8
308.93	9.56
309.143	9.25
309.356	10.72
309.569	11.21
309.781	10.95
309.994	12.87
310.207	13.6
310.42	15.95
310.632	14.03
310.845	12.88
311.058	14.77
311.27	15.51
311.483	15.22
311.696	14.37
311.908	12.44
312.121	13.71
312.333	12.73
312.546	12.84
312.759	10.5
312.971	12.79
313.184	12.58
313.396	11.48
313.609	8.39
313.821	9.07
314.034	9.39
314.246	11.71
314.459	10.1
314.671	10.09
314.884	10.45
315.096	13.27
315.309	12.58
315.521	14.87
315.733	14.78
315.946	18.47
316.158	17.47
316.371	16.86
316.583	15.58
316.795	15.48
317.008	14.67
317.22	14.66
317.432	15.09
317.644	15.43
317.857	15.23
318.069	16.49
318.281	12.78
318.494	14.66
318.706	14.61
318.918	16.72
319.13	17.51
319.342	20.09
319.555	18.28
319.767	15.65
319.979	14.72
320.191	16.22
320.403	15.12
320.615	16.97
320.827	15.42
321.039	14.43
321.252	12.64
321.464	12.47
321.676	10.56
321.888	10.34
322.1	11.6
322.312	11.42
322.524	10.2
322.736	9.77
322.948	9.46
323.16	11.74
323.372	14.41
323.584	12.17
323.796	13.89
324.007	13.7
324.219	13.24
324.431	12.42
324.643	14.05
324.855	13.68
325.067	14.82
325.279	16.59
325.491	15.55
325.702	14.1
325.914	16.67
326.126	15.35
326.338	17.2
326.55	19.58
326.761	23.15
326.973	22.66
327.185	22.39
327.396	23.05
327.608	21.75
327.82	22.28
328.032	22.27
328.243	20.67
328.455	20.89
328.666	18.48
328.878	18.08
329.09	16.1
329.301	19.32
329.513	20.05
329.725	19.72
329.936	22.58
330.148	21.68
330.359	23.73
330.571	24.86
330.782	24.86
330.994	25.87
331.205	25.83
331.417	25.23
331.628	23
331.84	23.31
332.051	22.51
332.262	20.16
332.474	21.12
332.685	22.4
332.897	24.39
333.108	23.4
333.319	23.88
333.531	24.03
333.742	24.65
333.953	25.59
334.165	27.32
334.376	27.7
334.587	29.52
334.799	30.44
335.01	28.55
335.221	28.45
335.432	29.98
335.644	30.89
335.855	31.17
336.066	30.35
336.277	31.57
336.488	30.07
336.7	30.37
336.911	30.17
337.122	29.96
337.333	31.21
337.544	30.64
337.755	30.36
337.966	29.44
338.177	31.41
338.388	32.19
338.599	31.3
338.811	32.74
339.022	34.08
339.233	35.08
339.444	35.97
339.655	35.32
339.866	35.44
340.076	37.28
340.287	38.56
340.498	37.43
340.709	38.07
340.92	37.21
341.131	36.29
341.342	36.07
341.553	35.84
341.764	34.38
341.975	35.84
342.185	35.77
342.396	33.65
342.607	33.21
342.818	32.65
343.029	33.61
343.239	34.04
343.45	34.72
343.661	34.93
343.872	34.82
344.082	35.97
344.293	35.43
344.504	35.23
344.714	35.61
344.925	35.17
345.136	34.96
345.346	34.21
345.557	33.91
345.768	33.13
345.978	32.44
346.189	32.61
346.399	32.23
346.61	31.66
346.821	32.27
347.031	32.82
347.242	33.61
347.452	34.86
347.663	35.29
347.873	36.34
348.084	37.01
348.294	36.29
348.504	35.46
348.715	34.93
348.925	35.82
349.136	35.41
349.346	36.43
349.557	37.81
349.767	36.9
349.977	37.5
350.188	36.96
350.398	35.96
350.608	39.23
350.819	39.43
351.029	39.91
351.239	40.69
351.449	40.6
351.66	39.46
351.87	36.84
352.08	37.23
352.29	37.86
352.501	38.78
352.711	38.84
352.921	35.73
353.131	36.22
353.341	35.24
353.552	32.91
353.762	32.63
353.972	34.1
354.182	33.63
354.392	35.3
354.602	33.48
354.812	32.67
355.022	32.65
355.232	34.11
355.442	33.88
355.652	34.61
355.862	36.09
356.072	35.37
356.282	33.09
356.492	35.18
356.702	34.64
356.912	34.59
357.122	34.56
357.332	35.79
357.542	35.41
357.752	35.44
357.962	35.82
358.171	36.41
358.381	37.45
358.591	38.13
358.801	37.34
359.011	37.42
359.221	37.55
359.43	38.05
359.64	37.86
359.85	37.87
360.06	37.74
360.269	37.35
360.479	37.33
360.689	36.1
360.899	37.28
361.108	37.77
361.318	37.59
361.528	38.18
361.737	38.17
361.947	38.34
362.156	38.83
362.366	38.57
362.576	38.4
362.785	38.28
362.995	39.54
363.204	40.51
363.414	39.75
363.623	38.97
363.833	38.66
364.042	38.54
364.252	38.86
364.461	38.58
364.671	38.37
364.88	38.88
365.09	39
365.299	38.33
365.509	36.4
365.718	36.76
365.927	36.79
366.137	36.15
366.346	35.94
366.555	34.68
366.765	34.01
366.974	34.52
367.183	33.78
367.393	33.75
367.602	34.69
367.811	34.59
368.021	34.68
368.23	35.02
368.439	35.59
368.648	35.69
368.857	35.86
369.067	36.61
369.276	36.45
369.485	36.65
369.694	36.25
369.903	35.58
370.112	35.98
370.321	35.74
370.531	35.81
370.74	35.72
370.949	36.68
371.158	36.75
371.367	36.21
371.576	36.83
371.785	37.64
371.994	37.92
372.203	38.81
372.412	37.78
372.621	37.6
372.83	38.34
373.039	39.2
373.248	37.67
373.457	37.94
373.666	37.73
373.874	36.53
374.083	36.82
374.292	37.34
374.501	35.44
374.71	36.7
374.919	37.73
375.128	36.05
375.336	35.26
375.545	36.53
375.754	36.35
375.963	37.36
376.171	38.21
376.38	37.63
376.589	37.58
376.798	39.23
377.006	38.58
377.215	38.38
377.424	38.97
377.632	39.43
377.841	38.83
378.05	39.74
378.258	39.37
378.467	38.96
378.675	39.19
378.884	39.03
379.093	38.06
379.301	38.21
379.51	38.01
379.718	37.96
379.927	37.48
380.135	37.16
380.344	37.41
380.552	36.92
380.761	37.05
380.969	36.29
381.177	36.23
381.386	36.2
381.594	36.6
381.803	36.6
382.011	36.47
382.219	36.28
382.428	36.48
382.636	35.55
382.845	35.57
383.053	36.05
383.261	35.77
383.469	34.63
383.678	34.3
383.886	33.72
384.094	34.01
384.302	34.66
384.511	35.13
384.719	35.31
384.927	35.41
385.135	35.58
385.343	34.3
385.552	34.93
385.76	35.41
385.968	36.46
386.176	36.53
386.384	35.5
386.592	35.27
386.8	34.97
387.008	34.51
387.216	33.71
387.424	33.9
387.633	34.22
387.841	33.89
388.049	33.95
388.257	33.82
388.465	33.55
388.672	33.99
388.88	34.09
389.088	34.05
389.296	34.33
389.504	34.74
389.712	34.26
389.92	34.22
390.128	34.04
390.336	34.27
390.544	33.79
390.751	34.05
390.959	34.44
391.167	34.32
391.375	34.12
391.583	34.26
391.79	34.66
391.998	34.95
392.206	35.45
392.414	35.54
392.621	35.14
392.829	35.1
393.037	35.38
393.244	35.23
393.452	35.38
393.66	35.89
393.867	36.02
394.075	35.76
394.283	35.21
394.49	34.76
394.698	34.87
394.905	34.98
395.113	34.91
395.32	34.42
395.528	34.16
395.735	34.08
395.943	34.02
396.15	33.63
396.358	33.6
396.565	34.43
396.773	34.91
396.98	35.09
397.188	35.1
397.395	35.23
397.602	35.35
397.81	35.52
398.017	35.49
398.225	34.88
398.432	35.02
398.639	35.03
398.847	34.78
399.054	34.83
399.261	34.9
399.468	35.15
399.676	35.52
399.883	35.73
400.09	35.76
400.297	36.16
400.505	36.57
400.712	36.73
400.919	36.46
401.126	36.04
401.333	35.91
401.54	35.91
401.748	35.75
401.955	35.67
402.162	35.68
402.369	35.78
402.576	35.19
402.783	35.27
402.99	35.54
403.197	35.77
403.404	36.16
403.611	36.12
403.818	36.03
404.025	35.75
404.232	35.68
404.439	35.72
404.646	35.39
404.853	35.75
405.06	35.75
405.267	35.62
405.474	35.71
405.681	35.48
405.887	35.17
406.094	35.19
406.301	35.62
406.508	35.72
406.715	35.68
406.922	35.74
407.128	35.61
407.335	35.37
407.542	35.06
407.749	35.39
407.955	35.56
408.162	35.92
408.369	36.07
408.575	36.03
408.782	35.7
408.989	35.67
409.195	35.83
409.402	35.59
409.609	36.09
409.815	36.13
410.022	35.55
410.228	35.67
410.435	35.51
410.642	35.45
410.848	34.92
411.055	35.06
411.261	35.05
411.468	34.76
411.674	34.57
411.881	34.11
412.087	34.28
412.294	34.44
412.5	34.11
412.706	34.23
412.913	34.06
413.119	34.12
413.326	33.85
413.532	33.57
413.738	33.93
413.945	33.93
414.151	33.65
414.357	33.35
414.564	33.42
414.77	33.36
414.976	33.19
415.182	33.08
415.389	33.2
415.595	33.32
415.801	33.52
416.007	33.27
416.214	33.39
416.42	33.34
416.626	33.45
416.832	33.32
417.038	33.41
417.244	33.31
417.45	33.39
417.657	33.87
417.863	34.08
418.069	33.9
418.275	33.92
418.481	33.79
418.687	33.8
418.893	34.08
419.099	34.26
419.305	34.27
419.511	34.45
419.717	34.31
419.923	33.98
420.129	33.82
420.335	33.91
420.541	33.77
420.746	33.91
420.952	34.21
421.158	34.03
421.364	33.87
421.57	33.95
421.776	33.93
421.982	33.96
422.187	33.87
422.393	33.88
422.599	33.9
422.805	34.1
423.01	34.05
423.216	33.9
423.422	33.73
423.628	33.63
423.833	33.48
424.039	33.41
424.245	33.39
424.45	33.32
424.656	33.13
424.862	32.95
425.067	32.92
425.273	32.82
425.478	32.81
425.684	32.83
425.889	32.87
426.095	32.72
426.301	32.4
426.506	32.23
426.712	32.39
426.917	32.66
427.123	32.79
427.328	32.61
427.533	32.59
427.739	32.2
427.944	32.23
428.15	32.04
428.355	31.96
428.561	32.11
428.766	32.34
428.971	32.23
429.177	31.98
429.382	31.76
429.587	31.92
429.793	32.05
429.998	32.37
430.203	32.57
430.408	32.6
430.614	32.88
430.819	33.45
431.024	33.24
431.229	33.28
431.434	33.29
431.64	33.85
431.845	33.63
432.05	33.64
432.255	33.52
432.46	33.04
432.665	33.08
432.87	33.03
433.076	32.74
433.281	32.65
433.486	32.49
433.691	32.57
433.896	32.14
434.101	32.25
434.306	32.12
434.511	32.22
434.716	32.4
434.921	32.37
435.126	32.35
435.331	32.06
435.535	32.22
435.74	32.27
435.945	32.04
436.15	32.03
436.355	32.05
436.56	32.17
436.765	32.02
436.97	31.98
437.174	31.78
437.379	31.91
437.584	32.06
437.789	32.04
437.993	32.1
438.198	32.14
438.403	32.27
438.608	32.07
438.812	32.08
439.017	32.18
439.222	32.03
439.426	32.27
439.631	32.08
439.836	32.18
440.04	32.24
440.245	32.15
440.45	32.02
440.654	32.08
440.859	32.12
441.063	31.91
441.268	31.97
441.472	32.05
441.677	32.1
441.881	32.16
442.086	32.08
442.29	31.96
442.495	31.97
442.699	32.29
442.904	32.1
443.108	32.06
443.312	32.12
443.517	32.13
443.721	32.19
443.925	32.14
444.13	32.16
444.334	32.31
444.538	32.35
444.743	32.36
444.947	32.11
445.151	32.09
445.356	32.16
445.56	32.21
445.764	32.05
445.968	31.88
446.173	31.78
446.377	31.7
446.581	31.53
446.785	31.69
446.989	31.73
447.193	31.71
447.398	31.77
447.602	31.76
447.806	31.58
448.01	31.54
448.214	31.76
448.418	31.73
448.622	31.7
448.826	31.72
449.03	31.67
449.234	31.69
449.438	31.84
449.642	31.77
449.846	31.5
450.05	31.82
450.254	32.08
450.458	31.94
450.662	31.97
450.866	31.88
451.069	31.91
451.273	31.71
451.477	31.72
451.681	31.5
451.885	31.44
452.089	31.72
452.292	31.68
452.496	31.43
452.7	31.21
452.904	31.16
453.107	31.3
453.311	31.43
453.515	31.15
453.719	30.99
453.922	31.07
454.126	31.29
454.33	31.18
454.533	30.89
454.737	31.06
454.94	31.21
455.144	31.12
455.348	30.87
455.551	30.73
455.755	30.75
455.958	30.65
456.162	30.83
456.365	30.53
456.569	30.41
456.772	30.64
456.976	30.47
457.179	30.29
457.383	30.2
457.586	30.28
457.79	30.47
457.993	30.43
458.196	30.59
458.4	30.66
458.603	30.84
458.807	30.95
459.01	30.98
459.213	30.97
459.417	31.09
459.62	31.34
459.823	31.37
460.026	31.33
460.23	31.42
460.433	31.52
460.636	31.38
460.839	31.25
461.042	31.38
461.246	31.22
461.449	30.96
461.652	30.98
461.855	30.93
462.058	30.9
462.261	30.76
462.464	30.72
462.668	30.46
462.871	30.51
463.074	30.65
463.277	30.46
463.48	30.52
463.683	30.86
463.886	30.85
464.089	30.82
464.292	30.85
464.495	30.82
464.698	31
464.901	30.92
465.104	30.89
465.306	30.84
465.509	30.96
465.712	31.17
465.915	31.03
466.118	30.93
466.321	31.04
466.524	31.28
466.726	31.17
466.929	31.14
467.132	31.31
467.335	31.34
467.538	31.37
467.74	31.26
467.943	30.87
468.146	31.17
468.348	31.39
468.551	31.35
468.754	31.13
468.956	31.36
469.159	31.24
469.362	31.13
469.564	31.2
469.767	31.13
469.969	31.33
470.172	31.2
470.375	31.25
470.577	30.94
470.78	30.76
470.982	30.83
471.185	30.84
471.387	30.92
471.59	31.22
471.792	31.08
471.995	31.23
472.197	31.04
472.399	31.47
472.602	31.25
472.804	31.46
473.007	31.51
473.209	31.74
473.411	31.36
473.614	31.21
473.816	30.92
474.018	30.95
474.22	30.84
474.423	31
474.625	30.77
474.827	30.87
475.03	31.1
475.232	31.16
475.434	30.8
475.636	31.06
475.838	31.22
476.04	31.26
476.243	31.37
476.445	31.38
476.647	31.13
476.849	31.27
477.051	31.29
477.253	31.17
477.455	30.98
477.657	31.25
477.859	31.36
478.061	31.44
478.263	31.56
478.465	31.54
478.667	31.62
478.869	31.53
479.071	31.58
479.273	31.56
479.475	31.44
479.677	31.6
479.879	31.6
480.081	31.6
480.283	31.49
480.485	31.44
480.686	31.58
480.888	31.44
481.09	31.63
481.292	31.55
481.494	31.66
481.695	31.81
481.897	31.89
482.099	31.91
482.301	31.78
482.502	31.72
482.704	31.71
482.906	31.59
483.107	31.69
483.309	31.57
483.511	31.64
483.712	31.61
483.914	31.53
484.115	31.52
484.317	31.47
484.519	31.5
484.72	31.6
484.922	31.6
485.123	31.58
485.325	31.48
485.526	31.53
485.728	31.49
485.929	31.49
486.131	31.53
486.332	31.52
486.534	31.51
486.735	31.47
486.936	31.33
487.138	31.31
487.339	31.32
487.541	31.51
487.742	31.58
487.943	31.55
488.144	31.54
488.346	31.52
488.547	31.5
488.748	31.46
488.95	31.51
489.151	31.61
489.352	31.59
489.553	31.59
489.755	31.32
489.956	31.28
490.157	31.32
490.358	31.29
490.559	31.4
490.76	31.44
490.961	31.58
491.163	31.56
491.364	31.49
491.565	31.4
491.766	31.29
491.967	31.47
492.168	31.4
492.369	31.41
492.57	31.29
492.771	31.19
492.972	31.1
493.173	30.94
493.374	30.85
493.575	30.93
493.776	31.06
493.976	31.18
494.177	31.08
494.378	31.15
494.579	30.98
494.78	31.21
494.981	31.26
495.182	31.18
495.382	31.41
495.583	31.48
495.784	31.19
495.985	31.13
496.185	31.23
496.386	31.02
496.587	31.09
496.788	31.12
496.988	30.99
497.189	30.96
497.39	31.07
497.59	30.88
497.791	30.92
497.992	31.07
498.192	31.04
498.393	31.01
498.593	31.11
498.794	30.87
498.994	30.82
499.195	30.78
499.395	30.67
499.596	30.59
499.796	30.76
499.997	30.6
500.197	30.5
500.398	30.57
500.598	30.41
500.799	30.41
500.999	30.63
501.199	30.59
501.4	30.54
501.6	30.43
501.801	30.46
502.001	30.26
502.201	30.43
502.402	30.41
502.602	30.04
502.802	30.12
503.002	29.93
503.203	29.65
503.403	29.75
503.603	29.92
503.803	29.93
504.003	29.84
504.204	29.86
504.404	29.89
504.604	29.93
504.804	30.5
505.004	30.57
505.204	30.72
505.404	30.78
505.604	30.85
505.804	30.75
506.005	31.04
506.205	31.03
506.405	31.04
506.605	30.9
506.805	30.88
507.005	30.52
507.204	30.56
507.404	30.82
507.604	30.94
507.804	30.97
508.004	31.03
508.204	31.01
508.404	31.24
508.604	31.34
508.804	31.33
509.003	31.19
509.203	31.26
509.403	31.24
509.603	30.99
509.803	30.94
510.002	31.02
510.202	31.05
510.402	30.91
510.602	30.78
510.801	30.83
511.001	30.8
511.201	31
511.4	30.98
511.6	30.94
511.8	30.97
511.999	31.07
512.199	30.98
512.398	30.83
512.598	30.91
512.797	30.9
512.997	30.72
513.197	30.78
513.396	30.65
513.596	30.7
513.795	30.7
513.994	30.69
514.194	30.85
514.393	30.81
514.593	30.89
514.792	30.81
514.992	30.67
515.191	30.77
515.39	30.66
515.59	30.69
515.789	30.62
515.988	30.63
516.188	30.66
516.387	30.46
516.586	30.56
516.786	30.65
516.985	30.81
517.184	31.02
517.383	31
517.582	31.16
517.782	31.21
517.981	31.14
518.18	31.14
518.379	31.15
518.578	31.18
518.777	31.15
518.976	31
519.176	31.07
519.375	30.91
519.574	30.96
519.773	30.82
519.972	30.98
520.171	31
520.37	30.95
520.569	30.84
520.768	30.81
520.967	30.74
521.166	30.85
521.365	30.74
521.564	30.78
521.762	30.64
521.961	30.65
522.16	30.4
522.359	30.28
522.558	30.22
522.757	30.32
522.956	30.35
523.154	30.29
523.353	30.4
523.552	30.44
523.751	30.71
523.949	30.95
524.148	31.06
524.347	31.22
524.546	31.61
524.744	31.87
524.943	31.93
525.142	32.04
525.34	32.16
525.539	32.02
525.737	31.89
525.936	31.87
526.135	31.86
526.333	31.99
526.532	32.18
526.73	32.05
526.929	32.1
527.127	32.14
527.326	32.14
527.524	32.19
527.723	32.32
527.921	32.47
528.12	32.5
528.318	32.51
528.516	32.53
528.715	32.52
528.913	32.53
529.112	32.56
529.31	32.63
529.508	32.71
529.707	32.66
529.905	32.65
530.103	32.6
530.301	32.62
530.5	32.51
530.698	32.4
530.896	32.25
531.094	32.16
531.293	32.03
531.491	32.03
531.689	31.87
531.887	31.86
532.085	31.88
532.283	32.02
532.481	31.98
532.68	32.08
532.878	32.11
533.076	32.19
533.274	32.37
533.472	32.44
533.67	32.32
533.868	32.26
534.066	32.24
534.264	32.22
534.462	32.19
534.66	32.13
534.858	32.11
535.056	32.12
535.253	32.03
535.451	31.98
535.649	31.89
535.847	31.95
536.045	32.07
536.243	32.14
536.441	32.22
536.638	32.08
536.836	32.03
537.034	31.98
537.232	32.12
537.43	32.09
537.627	32.09
537.825	32.09
538.023	32.13
538.22	32
538.418	32.1
538.616	32.03
538.813	32.15
539.011	32.18
539.209	32.38
539.406	32.25
539.604	32.25
539.801	32.33
539.999	32.38
540.196	32.44
540.394	32.63
540.591	32.62
540.789	32.79
540.986	32.9
541.184	32.96
541.381	33
541.579	32.97
541.776	33.12
541.974	33.07
542.171	33.15
542.368	33.07
542.566	33
542.763	32.87
542.96	32.86
543.158	32.78
543.355	32.8
543.552	32.62
543.75	32.73
543.947	32.68
544.144	32.63
544.341	32.58
544.539	32.68
544.736	32.78
544.933	32.89
545.13	32.86
545.327	32.89
545.524	32.85
545.722	33.02
545.919	32.8
546.116	32.64
546.313	32.68
546.51	32.8
546.707	32.8
546.904	32.8
547.101	32.79
547.298	32.68
547.495	32.54
547.692	32.59
547.889	32.55
548.086	32.67
548.283	32.72
548.48	32.87
548.677	32.54
548.874	32.49
549.07	32.39
549.267	32.09
549.464	31.93
549.661	31.89
549.858	31.64
550.055	31.42
550.251	31.41
550.448	31.43
550.645	31.18
550.842	31.27
551.038	31.17
551.235	31.37
551.432	31.84
551.628	32.41
551.825	32.52
552.022	32.75
552.218	33
552.415	33.09
552.612	33.35
552.808	33.38
553.005	33.4
553.201	33.54
553.398	33.29
553.594	33.18
553.791	32.94
553.987	32.79
554.184	32.88
554.38	32.73
554.577	32.56
554.773	32.59
554.97	32.76
555.166	33.1
555.362	33.38
555.559	33.56
555.755	33.75
555.952	33.47
556.148	33.86
556.344	34
556.541	33.99
556.737	34.38
556.933	34.23
557.129	34.13
557.326	33.9
557.522	33.72
557.718	33.68
557.914	33.7
558.11	33.93
558.307	33.58
558.503	33.25
558.699	33.48
558.895	33.31
559.091	32.99
559.287	33.21
559.483	33.37
559.679	33.42
559.876	33.59
560.072	33.59
560.268	33.98
560.464	34.17
560.66	34.25
560.856	34.22
561.052	34.09
561.247	34.36
561.443	34.26
561.639	34.18
561.835	34.14
562.031	34.11
562.227	34.3
562.423	34.2
562.619	34.15
562.815	34.33
563.01	34.55
563.206	34.71
563.402	34.73
563.598	34.81
563.793	34.67
563.989	34.45
564.185	34.41
564.381	34.24
564.576	34.35
564.772	34.34
564.968	34.43
565.163	34.25
565.359	34.24
565.555	34.26
565.75	34.46
565.946	34.84
566.141	35.01
566.337	35.34
566.532	35.37
566.728	35.16
566.923	35.49
567.119	35.58
567.314	35.73
567.51	35.9
567.705	36.04
567.901	36.12
568.096	35.98
568.292	36.1
568.487	35.87
568.682	35.63
568.878	35.75
569.073	35.72
569.268	35.69
569.464	35.73
569.659	35.89
569.854	36.13
570.05	35.9
570.245	35.93
570.44	36.02
570.635	36.08
570.831	36.36
571.026	36.42
571.221	36.27
571.416	36.33
571.611	36.32
571.806	36.31
572.002	35.99
572.197	36.15
572.392	36.14
572.587	35.98
572.782	35.99
572.977	36.02
573.172	35.93
573.367	36.08
573.562	35.89
573.757	35.91
573.952	35.8
574.147	35.86
574.342	35.79
574.537	35.66
574.732	35.9
574.927	35.89
575.121	35.93
575.316	35.88
575.511	36.04
575.706	36.26
575.901	36.38
576.096	36.34
576.29	36.41
576.485	36.4
576.68	36.76
576.875	36.68
577.069	36.8
577.264	36.72
577.459	36.7
577.654	36.45
577.848	36.3
578.043	36.31
578.238	36.43
578.432	36.41
578.627	36.27
578.821	35.91
579.016	36.1
579.21	35.99
579.405	36
579.6	36.22
579.794	36.38
579.989	36.28
580.183	36.26
580.378	36.28
580.572	36.13
580.766	36
580.961	36.27
581.155	35.94
581.35	35.77
581.544	35.59
581.738	35.41
581.933	35.41
582.127	35.49
582.321	35.44
582.516	35.35
582.71	35.37
582.904	35.57
583.099	35.22
583.293	35.46
583.487	35.73
583.681	35.97
583.875	36.05
584.07	35.82
584.264	35.76
584.458	35.57
584.652	35.22
584.846	35.54
585.04	35.77
585.234	36.05
585.428	35.79
585.623	35.63
585.817	35.66
586.011	35.96
586.205	36.18
586.399	36.36
586.593	36.3
586.787	36.74
586.981	36.73
587.174	36.41
587.368	36.26
587.562	36.49
587.756	36.87
587.95	37.21
588.144	36.77
588.338	36.82
588.532	36.81
588.725	37
588.919	36.81
589.113	37.1
589.307	37.14
589.501	37.45
589.694	37.28
589.888	37.04
590.082	36.69
590.275	36.93
590.469	36.78
590.663	36.87
590.856	37.12
591.05	37.25
591.244	36.77
591.437	37.04
591.631	36.72
591.824	36.89
592.018	36.92
592.212	36.85
592.405	37.04
592.599	36.83
592.792	36.7
592.986	36.15
593.179	36.05
593.372	36.35
593.566	36.02
593.759	36.47
593.953	36.61
594.146	36.82
594.339	36.81
594.533	36.48
594.726	36.7
594.92	36.58
595.113	36.83
595.306	36.93
595.499	36.55
595.693	36.79
595.886	36.89
596.079	36.8
596.272	36.78
596.466	36.88
596.659	37
596.852	36.82
597.045	36.9
597.238	37
597.431	37
597.624	37.39
597.818	37.34
598.011	37
598.204	36.93
598.397	36.71
598.59	36.63
598.783	36.45
598.976	36.72
599.169	36.83
599.362	36.83
599.555	36.88
599.748	36.53
599.941	36.64
600.134	36.57
600.326	36.47
600.519	36.52
600.712	36.5
600.905	36.56
601.098	36.38
601.291	36.42
601.483	36.57
601.676	36.47
601.869	36.51
602.062	36.55
602.255	36.6
602.447	36.83
602.64	37.24
602.833	37.47
603.025	37.81
603.218	38.17
603.411	38.32
603.603	38.15
603.796	38.38
603.989	38.35
604.181	38.31
604.374	38.38
604.566	38.38
604.759	38.09
604.951	38.16
605.144	37.9
605.336	37.73
605.529	37.4
605.721	37.35
605.914	37.25
606.106	37.28
606.299	37.19
606.491	37.16
606.683	36.95
606.876	36.79
607.068	36.3
607.26	36.42
607.453	36.13
607.645	36.11
607.837	36.14
608.03	36.14
608.222	36.14
608.414	36.37
608.606	36.4
608.799	36.37
608.991	36.7
609.183	37.08
609.375	37.14
609.567	37.39
609.759	37.57
609.952	37.57
610.144	37.6
610.336	37.69
610.528	37.71
610.72	37.76
610.912	37.95
611.104	37.62
611.296	37.5
611.488	37.28
611.68	37.37
611.872	37.36
612.064	37.32
612.256	37.07
612.448	37
612.64	36.77
612.832	36.48
613.023	36.21
613.215	36.39
613.407	36.31
613.599	36.57
613.791	36.33
613.983	36.61
614.174	36.56
614.366	36.95
614.558	37.08
614.75	37
614.941	37.05
615.133	36.9
615.325	36.81
615.516	37.02
615.708	36.66
615.9	36.73
616.091	36.26
616.283	36.31
616.475	36.15
616.666	36.21
616.858	36.36
617.049	36.44
617.241	36.83
617.432	36.94
617.624	36.89
617.815	36.73
618.007	36.65
618.198	36.26
618.39	36.16
618.581	36.33
618.773	36.34
618.964	35.97
619.155	35.81
619.347	35.78
619.538	35.97
619.729	35.94
619.921	36.29
620.112	36.4
620.303	36.85
620.494	37.27
620.686	37.16
620.877	37.14
621.068	37.32
621.259	37.4
621.451	37.52
621.642	37.05
621.833	36.96
622.024	36.85
622.215	36.67
622.406	36.73
622.597	36.28
622.788	35.93
622.98	35.95
623.171	36.39
623.362	36.23
623.553	36.36
623.744	36.71
623.935	36.69
624.126	36.89
624.317	37.01
624.508	36.93
624.698	37.25
624.889	37.57
625.08	37.2
625.271	36.98
625.462	37.52
625.653	37.16
625.844	37.15
626.034	37.36
626.225	37.38
626.416	37.33
626.607	37.39
626.798	37.2
626.988	37.24
627.179	37.56
627.37	37.66
627.56	37.28
627.751	37.23
627.942	36.98
628.132	36.67
628.323	36.31
628.514	36.4
628.704	36.67
628.895	36.79
629.085	36.81
629.276	36.82
629.466	36.76
629.657	36.99
629.847	37.21
630.038	37.53
630.228	37.76
630.419	38.12
630.609	37.96
630.8	37.81
630.99	37.58
631.181	37.26
631.371	37.49
631.561	37.67
631.752	37.48
631.942	37.44
632.132	37.37
632.323	37.01
632.513	37.07
632.703	37.18
632.893	37.21
633.084	37.35
633.274	37.41
633.464	37.01
633.654	36.8
633.844	36.87
634.034	37.58
634.225	37.4
634.415	37.66
634.605	37.36
634.795	37.64
634.985	37.52
635.175	37.69
635.365	37.79
635.555	37.7
635.745	37.86
635.935	37.52
636.125	36.86
636.315	36.74
636.505	36.83
636.695	36.75
636.885	36.38
637.075	35.93
637.265	35.79
637.455	35.7
637.644	35.69
637.834	35.67
638.024	35.71
638.214	35.66
638.404	36.15
638.593	36.04
638.783	36.07
638.973	36.24
639.163	36.14
639.352	35.84
639.542	35.87
639.732	35.64
639.921	35.25
640.111	35.48
640.301	35.3
640.49	34.95
640.68	34.79
640.87	34.63
641.059	34.53
641.249	35.29
641.438	35.55
641.628	35.86
641.817	36.14
642.007	35.72
642.196	36.32
642.386	36.63
642.575	36.43
642.764	36.56
642.954	37.1
643.143	37.02
643.333	36.37
643.522	36.43
643.711	36.07
643.901	35.63
644.09	36.18
644.279	35.9
644.469	35.85
644.658	36.48
644.847	36.29
645.036	36.23
645.226	36.52
645.415	36.64
645.604	36.24
645.793	36.11
645.982	36.41
646.171	36.24
646.361	36.29
646.55	36.06
646.739	35.49
646.928	35.3
647.117	35.23
647.306	35.11
647.495	35.01
647.684	35.25
647.873	35.07
648.062	35.16
648.251	35.28
648.44	34.91
648.629	35.07
648.818	35.92
649.007	36.4
649.196	36.45
649.384	36.1
649.573	36.41
649.762	36.43
649.951	36.61
650.14	36.64
650.328	36.67
650.517	36.85
650.706	36.88
650.895	36.32
651.083	36.63
651.272	36.62
651.461	37.18
651.65	37.24
651.838	37.62
652.027	37.61
652.216	37.91
652.404	38.24
652.593	38.23
652.781	37.77
652.97	37.61
653.158	37.16
653.347	37.09
653.535	37.1
653.724	36.93
653.912	36.1
654.101	36.11
654.289	35.33
654.478	34.95
654.666	34.43
654.855	34.56
655.043	34.56
655.231	34.84
655.42	35.38
655.608	34.83
655.796	35.2
655.985	35.14
656.173	35.44
656.361	36.39
656.55	36.49
656.738	36.63
656.926	36.45
657.114	36.38
657.302	36.33
657.491	35.96
657.679	36.12
657.867	35.91
658.055	36.42
658.243	36.49
658.431	35.98
658.619	35.89
658.807	36.11
658.996	36.55
659.184	37.2
659.372	37.53
659.56	37.32
659.748	37.41
659.936	37.66
660.124	37.45
660.311	37.31
660.499	37.28
660.687	37.61
660.875	37.65
661.063	37.41
661.251	36.73
661.439	36.29
661.627	36.28
661.814	36.37
662.002	36.17
662.19	36.93
662.378	36.63
662.565	36.74
662.753	36.48
662.941	36.67
663.129	36.87
663.316	37.49
663.504	37.49
663.692	37.81
663.879	37.7
664.067	37.51
664.254	37.48
664.442	37.69
664.63	37.7
664.817	38.36
665.005	38.7
665.192	38.64
665.38	38.81
665.567	38.62
665.755	38.76
665.942	38.23
666.13	38.93
666.317	38.34
666.504	38.47
666.692	38.43
666.879	38.22
667.067	37.72
667.254	37.18
667.441	36.52
667.629	36.58
667.816	36.39
668.003	36.69
668.19	36.06
668.378	36.1
668.565	36.03
668.752	36.52
668.939	35.92
669.127	36.18
669.314	37.12
669.501	37.48
669.688	37.2
669.875	37.35
670.062	37.41
670.249	37.41
670.436	37.49
670.623	37.18
670.81	36.89
670.997	36.95
671.184	36.73
671.371	36.41
671.558	36.09
671.745	36.26
671.932	36.16
672.119	36.24
672.306	36.32
672.493	36.18
672.68	35.99
672.867	35.48
673.054	35.35
673.24	35.51
673.427	35.23
673.614	35.33
673.801	35.21
673.988	34.82
674.174	34.75
674.361	34.52
674.548	34.6
674.734	35.27
674.921	35.28
675.108	35.93
675.294	35.76
675.481	35.84
675.668	35.65
675.854	36.09
676.041	36.14
676.227	36.54
676.414	36.56
676.601	36.9
676.787	36.92
676.974	37.49
677.16	37
677.347	37.57
677.533	37.85
677.719	37.96
677.906	37.89
678.092	38.1
678.279	37.72
678.465	38.42
678.651	37.77
678.838	37.62
679.024	37.76
679.21	37.99
679.397	37.98
679.583	37.83
679.769	37.81
679.955	37.86
680.142	37.96
680.328	38.03
680.514	37.88
680.7	38.01
680.886	38.09
681.073	37.78
681.259	37.7
681.445	36.92
681.631	36.47
681.817	36.61
682.003	36.69
682.189	36.62
682.375	36.4
682.561	36.62
682.747	37.16
682.933	37.03
683.119	36.79
683.305	36.63
683.491	36.84
683.677	37.48
683.863	37.04
684.049	36.93
684.235	36.77
684.42	37.27
684.606	37.08
684.792	36.86
684.978	36.72
685.164	37.36
685.349	37.7
685.535	37.5
685.721	36.88
685.907	37.33
686.092	37.19
686.278	36.93
686.464	36.92
686.649	36.66
686.835	36.59
687.021	36.98
687.206	36.84
687.392	36.54
687.577	36.34
687.763	36.76
687.948	36.9
688.134	36.66
688.319	36.79
688.505	36.77
688.69	36.49
688.876	36.18
689.061	35.69
689.247	35.03
689.432	34.92
689.618	35.79
689.803	35.45
689.988	35.28
690.174	35.99
690.359	36.27
690.544	36.33
690.73	36.54
690.915	37.07
691.1	37.04
691.285	37.45
691.471	37.53
691.656	37.1
691.841	37.84
692.026	37.78
692.211	36.87
692.396	36.46
692.582	36.32
692.767	35.8
692.952	36.19
693.137	37.05
693.322	37.08
693.507	37.63
693.692	38.24
693.877	38.67
694.062	39.24
694.247	39.42
694.432	39.95
694.617	39.51
694.802	40.47
694.987	40.02
695.172	39.61
695.357	39.91
695.541	40.07
695.726	39.17
695.911	38.37
696.096	37.45
696.281	37.54
696.466	36.72
696.65	37.05
696.835	36.39
697.02	36.18
697.204	36.86
697.389	35.92
697.574	35.54
697.759	35.88
697.943	36.07
698.128	36.61
698.312	36.57
698.497	37.08
698.682	37.01
698.866	37.07
699.051	36.82
699.235	36.28
699.42	36.84
699.604	37.33
699.789	37.17
699.973	37.48
700.158	37.25
700.342	37.62
700.527	37.69
700.711	37.47
700.895	37.75
701.08	38.13
701.264	38.75
701.448	38.71
701.633	38.08
701.817	38.6
702.001	37.88
702.186	38.05
702.37	37.06
702.554	36.78
702.738	36.83
702.923	36.78
703.107	36.77
703.291	36.1
703.475	36.26
703.659	36.03
703.843	35.66
704.027	35.17
704.212	34.37
704.396	35.79
704.58	35.24
704.764	35.95
704.948	35.23
705.132	34.53
705.316	34.71
705.5	34.27
705.684	34.31
705.868	34.9
706.052	35.29
706.235	35.74
706.419	35.22
706.603	36.31
706.787	35.62
706.971	36.54
707.155	37.49
707.339	37.62
707.522	37.46
707.706	37.31
707.89	36.03
708.074	36.48
708.257	35.98
708.441	35.66
708.625	34.87
708.808	34.45
708.992	34.7
709.176	33.95
709.359	33.62
709.543	34.58
709.727	35.19
709.91	36.31
710.094	35.76
710.277	36.66
710.461	36.68
710.644	36.77
710.828	36.96
711.011	36.01
711.195	36.37
711.378	35.81
711.562	36.03
711.745	35.87
711.928	35.51
712.112	35.91
712.295	35.32
712.478	35.46
712.662	35.65
712.845	36.22
713.028	36.51
713.212	35.94
713.395	37.17
713.578	36.43
713.761	36.17
713.945	35.81
714.128	34.71
714.311	34.49
714.494	34.81
714.677	34.93
714.86	35.1
715.043	34.85
715.227	35.48
715.41	34.56
715.593	34.96
715.776	34.99
715.959	35.26
716.142	36.46
716.325	37.38
716.508	36.88
716.691	36.82
716.874	36.6
717.057	36.46
717.239	36.46
717.422	37.24
717.605	37.17
717.788	37.18
717.971	37.91
718.154	37.2
718.337	36.05
718.519	36.62
718.702	37.25
718.885	37.58
719.068	38.62
719.25	39.36
719.433	39.88
719.616	39.42
719.798	39.07
719.981	37.66
720.164	38.66
720.346	39.06
720.529	41.01
720.712	39.94
720.894	40.68
721.077	40.07
721.259	39.48
721.442	38.45
721.624	37.02
721.807	36.69
721.989	37.44
722.172	36.46
722.354	36.62
722.537	34.24
722.719	34.49
722.901	32.77
723.084	33.84
723.266	33.74
723.448	33.93
723.631	35.58
723.813	36.21
723.995	35.66
724.178	37.02
724.36	37.58
724.542	38.05
724.724	38.47
724.907	38.4
725.089	37.88
725.271	38.17
725.453	39.11
725.635	37.79
725.817	37.09
725.999	37.64
726.181	36.81
726.364	36.32
726.546	35.64
726.728	35.43
726.91	35.76
727.092	36
727.274	34.65
727.456	34.3
727.638	36.22
727.819	35.75
728.001	36.56
728.183	36.63
728.365	36.52
728.547	36.93
728.729	37.68
728.911	37.39
729.093	36.49
729.274	37.7
729.456	37.26
729.638	36.57
729.82	37.47
730.001	36.07
730.183	35.42
730.365	36.35
730.546	36.47
730.728	36.07
730.91	35.09
731.091	35.23
731.273	34.71
731.455	35
731.636	33.98
731.818	34.04
731.999	34.17
732.181	35.79
732.362	35.37
732.544	35.21
732.725	34.91
732.907	35.82
733.088	36.33
733.27	36.84
733.451	35.51
733.633	37.56
733.814	37.56
733.995	37.6
734.177	37.44
734.358	36.72
734.539	36.4
734.721	35.74
734.902	35.94
735.083	36.28
735.264	36.13
735.446	37.48
735.627	35.99
735.808	36.07
735.989	35.83
736.17	36.34
736.351	36.85
736.533	37.38
736.714	39.3
736.895	40.15
737.076	38.75
737.257	38.09
737.438	35.95
737.619	37.58
737.8	37.08
737.981	37.41
738.162	35.33
738.343	35.15
738.524	34.33
738.705	33.1
738.886	33.29
739.067	33.64
739.247	32.88
739.428	34
739.609	33.37
739.79	32.29
739.971	32.95
740.151	34.1
740.332	34.44
740.513	35.32
740.694	35.11
740.874	33.26
741.055	33.63
741.236	35.25
741.417	35.43
741.597	35.23
741.778	36.65
741.958	35.41
742.139	34.14
742.32	34.28
742.5	34.05
742.681	34.04
742.861	35.07
743.042	35.58
743.222	34.82
743.403	35.43
743.583	35.43
743.764	35.96
743.944	36.48
744.124	36.87
744.305	36.43
744.485	36.77
744.666	36.93
744.846	37.78
745.026	35.95
745.207	34.41
745.387	33.57
745.567	33.45
745.747	33.35
745.928	33.43
746.108	32.43
746.288	32.66
746.468	31.03
746.648	30.69
746.829	29.9
747.009	31.74
747.189	32.7
747.369	33.46
747.549	32.39
747.729	31.36
747.909	30.58
748.089	31.37
748.269	30.74
748.449	30.69
748.629	30.27
748.809	30.46
748.989	29.27
749.169	30.97
749.349	31.23
749.529	30.24
749.709	31.79
749.889	32.51
750.068	31.41
750.248	30.32
750.428	30.43
750.608	31.39
750.788	31.64
750.967	32.49
751.147	32.27
751.327	32.41
751.507	34.32
751.686	32.29
751.866	32.33
752.046	34.1
752.225	35.31
752.405	36.77
752.585	37.3
752.764	37.8
752.944	35.58
753.123	35.89
753.303	33.68
753.482	32.88
753.662	33.91
753.841	33.99
754.021	32.41
754.2	32.42
754.38	32.69
754.559	30.99
754.739	30.38
754.918	31.43
755.097	31.08
755.277	31.89
755.456	31.82
755.635	31.79
755.815	32.34
755.994	32.3
756.173	33.18
756.352	31.94
756.532	33.21
756.711	31.5
756.89	31.86
757.069	30.84
757.248	32.68
757.427	33.24
757.607	33.32
757.786	31.87
757.965	33.09
758.144	31.59
758.323	30.44
758.502	31.03
758.681	31.63
758.86	32.08
759.039	33.33
759.218	30.98
759.397	31.01
759.576	31.45
759.755	32.39
759.934	32.91
760.113	33.3
760.291	34.54
760.47	34.58
760.649	34.13
760.828	33.95
761.007	33.53
761.186	36.15
761.364	37.13
761.543	37.56
761.722	35.96
761.901	36.6
762.079	37.46
762.258	38.26
762.437	37.94
762.615	39.49
762.794	40.24
762.972	40.38
763.151	40.4
763.33	39.18
763.508	38.58
763.687	39.36
763.865	39.53
764.044	38.97
764.222	39.1
764.401	39.18
764.579	38.52
764.758	37.53
764.936	35.99
765.114	35.39
765.293	35.04
765.471	35.56
765.65	35.97
765.828	34.93
766.006	34.51
766.184	34.19
766.363	33.22
766.541	32.85
766.719	33.29
766.898	35.21
767.076	35.15
767.254	35.06
767.432	34.32
767.61	32.99
767.788	33.54
767.967	33.45
768.145	32.92
768.323	33.42
768.501	31.72
768.679	29.32
768.857	28.39
769.035	26.4
769.213	27.02
769.391	28.23
769.569	28.24
769.747	27.09
769.925	28.79
770.103	27.49
770.281	26.91
770.459	29.57
770.636	32.23
770.814	30.9
770.992	32.26
771.17	32.05
771.348	31.3
771.525	32.07
771.703	32.43
771.881	31.35
772.059	31.87
772.236	31.64
772.414	32.66
772.592	32.59
772.769	34.43
772.947	34.82
773.125	36.22
773.302	33.75
773.48	33.63
773.657	33.68
773.835	32.86
774.013	33.76
774.19	35.29
774.368	33.54
774.545	32.25
774.723	33.21
774.9	33.19
775.077	33.42
775.255	36.1
775.432	37.15
775.61	36.31
775.787	34.78
775.964	32.17
776.142	31.44
776.319	32.24
776.496	34.11
776.674	32.55
776.851	31.36
777.028	29.01
777.205	25.63
777.382	26.25
777.56	25.21
777.737	27.53
777.914	31.58
778.091	32.7
778.268	33.19
778.445	33.16
778.622	32.37
778.8	32.93
778.977	32.91
779.154	33.99
779.331	33.25
779.508	34.64
779.685	33.76
779.862	33.76
780.038	30.47
780.215	30.55
780.392	28.62
780.569	30.77
780.746	28.24
780.923	28.73
781.1	30.58
781.277	31.38
781.453	31.21
781.63	30.86
781.807	27.72
781.984	29.88
782.16	26.28
782.337	25.67
782.514	25.29
782.691	24.11
782.867	24.18
783.044	19.6
783.221	17.87
783.397	19.64
783.574	22.18
783.75	22.94
783.927	21.97
784.103	25.53
784.28	25.29
784.456	22.75
784.633	25.82
784.809	26.39
784.986	30.25
785.162	31.25
785.339	28.31
785.515	26.29
785.692	26.11
785.868	28.55
786.044	27.23
786.221	31.33
786.397	32.13
786.573	29.57
786.749	29.42
786.926	30.81
787.102	30.55
787.278	30.12
787.454	29.25
787.631	30.41
787.807	29.51
787.983	31.41
788.159	26.5
788.335	22.23
788.511	23.95
788.687	23.12
788.863	23.48
789.039	21.47
789.216	26.04
789.392	24.9
789.568	25.12
789.744	21.57
789.919	20.84
790.095	25.48
790.271	32.74
790.447	34.76
790.623	34.82
790.799	32.48
790.975	34.33
791.151	29.34
791.327	33.43
791.502	32.89
791.678	36.81
791.854	35
792.03	31.68
792.205	31.1
792.381	30.26
792.557	32.41
792.733	35.33
792.908	33.98
793.084	35.06
793.259	32.78
793.435	31.19
793.611	28.27
793.786	24
793.962	25.73
794.137	23.32
794.313	22.98
794.488	21.76
794.664	21.13
794.839	20.39
795.015	21.88
795.19	23.39
795.366	27.39
795.541	27.97
795.716	31.92
795.892	29.46
796.067	27.82
796.242	27.02
796.418	27.12
796.593	24.39
796.768	22.6
796.944	20.68
797.119	20.56
797.294	16.5
797.469	17.23
797.644	16.29
797.82	19.59
797.995	23
798.17	21.35
798.345	22.46
798.52	23.17
798.695	26.66
798.87	30.85
799.045	29.78
799.22	31.87
799.395	31.04
799.57	31.08
799.745	32.28
799.92	31.84
800.095	32.83
800.27	32.97
800.445	34.53
800.62	36.13
800.795	35.33
800.97	34.11
801.145	34.02
801.319	34.92
801.494	35.39
801.669	31.81
801.844	31.11
802.018	31.35
802.193	27.99
802.368	25.92
802.543	24.12
802.717	21.85
802.892	24.47
803.067	26.84
803.241	27.47
803.416	26.29
803.59	25.82
803.765	24.06
803.94	28.1
804.114	28.3
804.289	28.53
804.463	26.77
804.638	27.38
804.812	28.55
804.986	27.3
805.161	27.89
805.335	29.31
805.51	34.45
805.684	32.22
805.858	30.62
806.033	30.49
806.207	31.34
806.381	32.8
806.556	32.5
806.73	33.56
806.904	35.75
807.078	34.67
807.253	36.33
807.427	35.23
807.601	37.62
807.775	38.36
807.949	39.62
808.123	42.07
808.298	39.89
808.472	40.6
808.646	37.36
808.82	35.09
808.994	36.13
809.168	29.65
809.342	24.87
809.516	27.65
809.69	26.18
809.864	30.16
810.038	28.72
810.212	32.44
810.385	33.25
810.559	31.91
810.733	31.53
810.907	27.2
811.081	27.67
811.255	26.89
811.428	24.4
811.602	26.43
811.776	20.89
811.95	20.4
812.123	18.3
812.297	16
812.471	17.76
812.644	10.36
812.818	16.27
812.992	25.17
813.165	28.98
813.339	32.37
813.512	27.75
813.686	26.54
813.86	30.19
814.033	32.65
814.207	36.82
814.38	35.31
814.554	35.39
814.727	34.58
814.9	31.1
815.074	25.87
815.247	20.36
815.421	19.36
815.594	26.55
815.767	24.02
815.941	19.48
816.114	11.43
816.287	17.6
816.46	19.99
816.634	16.89
816.807	13.73
816.98	21.91
817.153	25.69
817.327	28.71
817.5	27.5
817.673	32.6
817.846	31.01
818.019	31.13
818.192	28.02
818.365	32.42
818.538	36.64
818.711	42.55
818.884	41.02
819.057	39.14
819.23	36.78
819.403	36.18
819.576	32.3
819.749	38.08
819.922	39.38
820.095	34.94
820.268	36.16
820.441	38.29
820.614	35.43
820.786	34.48
820.959	36.28
821.132	36.49
821.305	36.43
821.477	36.69
821.65	34.93
821.823	34.8
821.996	36.14
822.168	35.44
822.341	35.58
822.514	35.68
822.686	35.25
822.859	34.89
823.031	35
823.204	34.41
823.376	33.97
823.549	34.82
823.722	35.21
823.894	35.84
824.067	36.3
824.239	36.01
824.411	35.81
824.584	36.11
824.756	36.46
824.929	37.35
825.101	37.96
825.273	39.56
825.446	39.32
825.618	39.45
825.79	39.45
825.963	39.16
826.135	38.47
826.307	39.02
826.479	39.45
826.652	39.58
826.824	39.1
826.996	39.58
827.168	37.1
827.34	36.33
827.512	35.19
827.684	36.4
827.856	37.18
828.029	35.88
828.201	35.21
828.373	33.25
828.545	31.3
828.717	29.01
828.889	27.55
829.061	29.61
829.232	29.99
829.404	30.1
829.576	27.54
829.748	24.29
829.92	28.75
830.092	29.79
830.264	36.34
830.436	37.9
830.607	38.15
830.779	40.28
830.951	42.22
831.123	43.07
831.294	44.06
831.466	40.47
831.638	39.39
831.809	33.03
831.981	33.87
832.153	26.92
832.324	28.39
832.496	32.95
832.667	32.03
832.839	28.27
833.011	23.68
833.182	25.1
833.354	29.39
833.525	32.49
833.697	32.95
833.868	34.98
834.039	37.79
834.211	37.37
834.382	35.74
834.554	35.69
834.725	33.91
834.896	37.79
835.068	39.47
835.239	35.89
835.41	36.72
835.581	40.31
835.753	37.27
835.924	33.07
836.095	32.26
836.266	33.06
836.438	36
836.609	35.97
836.78	35.6
836.951	28.9
837.122	34.14
837.293	31.21
837.464	28.12
837.635	24.11
837.806	30.07
837.977	30.07
838.148	34.17
838.319	30.69
838.49	27.84
838.661	29.33
838.832	32.45
839.003	25.93
839.174	23.9
839.345	17.45
839.516	27.45
839.687	23.13
839.857	19.66
840.028	20.08
840.199	16.04
840.37	21.69
840.54	21.85
840.711	25.34
840.882	24.69
841.053	25.6
841.223	31.96
841.394	27.82
841.564	34.26
841.735	30.01
841.906	23.58
842.076	22.06
842.247	22.91
842.417	10.64
842.588	4.71
842.758	15.77
842.929	26.92
843.099	17.06
843.27	22.12
843.44	13.39
843.611	26.2
843.781	22.4
843.951	22.67
844.122	25.87
844.292	29.59
844.462	28.51
844.633	23.24
844.803	6.29
844.973	14.22
845.144	11.29
845.314	6.65
845.484	-5.95
845.654	4.71
845.824	17.04
845.995	21.96
846.165	18.01
846.335	28.03
846.505	30.97
846.675	41.37
846.845	42.7
847.015	41.21
847.185	59.73
847.355	57.99
847.525	60.43
847.695	55.17
847.865	51.65
848.035	54.42
848.205	57.85
848.375	54.86
848.545	44.59
848.715	39.13
848.884	28.25
849.054	14.4
849.224	4.5
849.394	-11.08
849.564	18.79
849.733	20.88
849.903	20.26
850.073	-34.82
850.243	-20.86
850.412	-12.45
850.582	-8.96
850.752	-0.78
850.921	-9.63
851.091	4.81
851.26	-18.31
851.43	-36.03
851.599	-45.8
851.769	-14.6
851.939	22.8
852.108	-4.68
852.278	-15.95
852.447	4.75
852.616	5.74
852.786	8.56
852.955	9.26
853.125	19.78
853.294	13.28
853.463	12.01
853.633	2.67
853.802	12.74
853.971	29.52
854.141	42.69
854.31	40.36
854.479	50.62
854.648	53.34
854.818	48.86
854.987	61.43
855.156	68.67
855.325	40.72
855.494	62.76
855.663	56.46
855.832	41.54
856.001	11.19
856.171	19.64
856.34	1.89
856.509	6.1
856.678	19.95
856.847	33.31
857.016	39.01
857.185	49.05
857.353	49.54
857.522	57.17
857.691	59.71
857.86	70.4
858.029	61.87
858.198	77.81
858.367	72.36
858.535	67.96
858.704	61.12
858.873	52.76
859.042	59.7
859.21	58.82
859.379	49.13
859.548	51.13
859.717	48.92
859.885	68.66
860.054	67.78
860.222	112.57
860.391	103.69
860.56	82.7
860.728	90.98
860.897	79.61
861.065	38.18
861.234	6.73
861.402	10.02
861.571	-20.1
861.739	-41.96
861.908	-14.47
862.076	-38.71
862.244	-63.47
862.413	-16.38
862.581	-26.25
862.749	-15.56
862.918	-7.82
863.086	-4.25
863.254	-4.48
863.423	2.03
863.591	13.46
863.759	8.56
863.927	15.8
864.096	18.09
864.264	-6.62
864.432	-2.23
864.6	15.58
864.768	17.62
864.936	26.39
865.104	29.02
865.272	45.93
865.44	33.8
865.608	49.91
865.776	30.88
865.944	33.38
866.112	70.47
866.28	70.98
866.448	71.72
866.616	85.81
866.784	77.04
866.952	57.97
867.12	53.05
867.288	66.11
867.455	38.9
867.623	56.72
867.791	37.5
867.959	-8.41
868.127	-9.39
868.294	-21.89
868.462	-25.78
868.63	-10.95
868.797	2.37
868.965	-12.09
869.133	-20.36
869.3	1.94
869.468	-11.34
869.636	18.69
869.803	52.68
869.971	55.6
870.138	53.55
870.306	62.33
870.473	58.99
870.641	49.5
870.808	74.88
870.975	84.33
871.143	67.57
871.31	70.84
871.478	63.69
871.645	55.93
871.812	56.51
871.98	62.7
872.147	54.67
872.314	56.64
872.482	61.66
872.649	69.07
872.816	61.81
872.983	75.98
873.15	73.51
873.318	53.57
873.485	33.59
873.652	18.22
873.819	34.2
873.986	26.27
874.153	22.09
874.32	14.66
874.487	15.24
874.654	5.07
874.821	-6.17
874.988	1.44
875.155	-0.11
875.322	26.38
875.489	41.61
875.656	38.66
875.823	41.03
875.99	47.34
876.157	53.56
876.324	64
876.49	71.19
876.657	74.11
876.824	56.6
876.991	66.21
877.157	62.25
877.324	66.2
877.491	61.82
877.658	45.48
877.824	-8.76
877.991	6.01
878.157	6.57
878.324	13.51
878.491	4.86
878.657	14.32
878.824	26.21
878.99	23.58
879.157	2.45
879.323	3.82
879.49	8.32
879.656	3.52
879.823	-12.38
879.989	-25.57
880.156	-46.36
880.322	-44.96
880.488	-56.67
880.655	-72.19
880.821	-69.72
880.987	-35.53
881.154	-33.64
881.32	-8.67
881.486	-0.63
881.652	1.52
881.819	-0.29
881.985	7.67
882.151	10.79
882.317	13.46
882.483	20.39
882.649	20.99
882.816	19.37
882.982	17.18
883.148	12.94
883.314	19.35
883.48	22.41
883.646	24.12
883.812	25.91
883.978	29.75
884.144	31.61
884.31	27
884.476	24.41
884.642	28.27
884.807	32.99
884.973	30.51
885.139	31.21
885.305	28.24
885.471	29.09
885.637	27.86
885.802	25.62
885.968	25.26
886.134	30.04
886.3	37.12
886.465	26.66
886.631	25.13
886.797	35.63
886.962	37.68
887.128	41.32
887.293	40.52
887.459	38.26
887.625	26.46
887.79	24.36
887.956	37.53
888.121	34.41
888.287	44.73
888.452	49.24
888.618	42.56
888.783	27.16
