Data from 2938076_Reflection_3.txt Node
Date: Sat Jul 11 20:24:35 EDT 2015
User: robert
Spectrometer: USB4E03001
Autoset integration time: false
Trigger mode: 4
Integration Time (sec): 1.000000E-1
Scans to average: 10
Electric dark correction enabled: true
Nonlinearity correction enabled: false
Boxcar width: 5
Stray light correction enabled: false
XAxis mode: Wavelengths
Stop averaging: false
Number of Pixels in Spectrum: 3648
>>>>>Begin Spectral Data<<<<<
177.566	32.36
177.785	66.79
178.005	105.35
178.225	122.29
178.445	52.17
178.665	400.81
178.885	-428.1
179.105	-25.52
179.324	-3.34
179.544	725.65
179.764	96.68
179.984	80.46
180.204	80.75
180.423	87.27
180.643	110.44
180.863	356.91
181.083	46.51
181.302	32.96
181.522	71.93
181.742	56.44
181.961	41.85
182.181	-35.83
182.401	-32.38
182.621	-80.13
182.84	-142.08
183.06	-99.57
183.279	-1621.3
183.499	-232.49
183.719	215.18
183.938	115.67
184.158	111.61
184.377	104.46
184.597	3.83
184.816	-7.05
185.036	-50.78
185.256	-8.75
185.475	29.5
185.695	-11.37
185.914	-3.94
186.134	331.03
186.353	-0.76
186.572	-19.43
186.792	-6.94
187.011	10.36
187.231	-9.59
187.45	63.43
187.67	-212.04
187.889	264.74
188.108	506.88
188.328	276.97
188.547	759.81
188.766	196.38
188.986	223.45
189.205	98.1
189.424	-11.41
189.644	439.56
189.863	-16.7
190.082	-196.22
190.302	2685.82
190.521	452.61
190.74	512.42
190.959	764.28
191.178	423.63
191.398	504.3
191.617	917.53
191.836	3754.67
192.055	-487.58
192.274	-6992.92
192.494	-876.49
192.713	-171.75
192.932	-176.89
193.151	-168.61
193.37	-100.35
193.589	-83.04
193.808	-36
194.027	17.66
194.246	27.68
194.465	15.9
194.685	70.63
194.904	104.92
195.123	287.68
195.342	136.08
195.561	9142.86
195.78	13.51
195.999	134.07
196.218	157.09
196.436	434.47
196.655	150.64
196.874	33.39
197.093	139.68
197.312	331.27
197.531	527.65
197.75	-504.7
197.969	-222.87
198.188	447.89
198.407	172.45
198.625	122.18
198.844	48.99
199.063	114.21
199.282	179.06
199.501	594.49
199.719	-1123.6
199.938	39.43
200.157	90.28
200.376	41.99
200.594	213.07
200.813	37.48
201.032	-4836.36
201.251	-312.2
201.469	2.34
201.688	19.4
201.907	6.6
202.125	-119.75
202.344	-38.8
202.563	-115.52
202.781	-56.96
203	-51.18
203.218	-5.41
203.437	12.37
203.656	-13.32
203.874	-42.39
204.093	-83.98
204.311	-66.7
204.53	-32.36
204.748	122.89
204.967	1900
205.185	-183.13
205.404	19.98
205.622	-58.85
205.841	9.33
206.059	403.99
206.278	249.89
206.496	-67.65
206.715	3259.09
206.933	-17.8
207.151	-1089.02
207.37	188.15
207.588	72.45
207.806	116.34
208.025	-6358.82
208.243	53.85
208.461	-3.24
208.68	19.79
208.898	57.84
209.116	71.2
209.335	68.7
209.553	47.06
209.771	60.29
209.989	95.08
210.208	77.41
210.426	69.9
210.644	76.65
210.862	64.23
211.081	160.17
211.299	70.36
211.517	21.58
211.735	-44.82
211.953	6.88
212.171	11.95
212.39	-31.65
212.608	-42.67
212.826	-68.49
213.044	-32.94
213.262	37.12
213.48	29.59
213.698	60.77
213.916	69.16
214.134	62.89
214.352	48.19
214.57	39.44
214.788	70.46
215.006	32.66
215.224	64.48
215.442	76.51
215.66	38.55
215.878	13.21
216.096	-12.14
216.314	216.84
216.532	3.04
216.75	53.32
216.968	49.24
217.185	61.95
217.403	117.23
217.621	74.62
217.839	60.06
218.057	38.83
218.275	41.75
218.492	30.17
218.71	2.67
218.928	19.21
219.146	-6.45
219.363	35.32
219.581	44.54
219.799	53.54
220.017	33.99
220.234	34.98
220.452	72.73
220.67	52.09
220.887	30.68
221.105	27.58
221.323	43.5
221.54	36.86
221.758	21.28
221.976	21.42
222.193	10.08
222.411	36.35
222.629	18.54
222.846	12.4
223.064	9.23
223.281	31.05
223.499	38.79
223.716	-11.05
223.934	24.26
224.151	28.77
224.369	24.63
224.586	7.9
224.804	4.88
225.021	33.62
225.239	34.92
225.456	39.8
225.674	30.53
225.891	25.34
226.108	32.84
226.326	35.04
226.543	33.82
226.76	29.15
226.978	27.68
227.195	20.36
227.413	1.18
227.63	-2.13
227.847	-8.72
228.064	-1.63
228.282	4.86
228.499	2.92
228.716	1.4
228.934	3.75
229.151	5.91
229.368	4.77
229.585	7.76
229.802	9.82
230.02	9.88
230.237	12.99
230.454	8.59
230.671	7.17
230.888	6.48
231.105	8.04
231.323	4.28
231.54	-0.85
231.757	-1.94
231.974	-4.88
232.191	-2.3
232.408	5.6
232.625	5.96
232.842	13.7
233.059	11.92
233.276	13.46
233.493	13.33
233.71	17.68
233.927	19.02
234.144	20.3
234.361	16.89
234.578	19.85
234.795	15.4
235.012	13.91
235.229	9.17
235.446	9.18
235.663	12.04
235.879	9.54
236.096	8.52
236.313	9.39
236.53	6.42
236.747	7.31
236.964	2.57
237.181	-4.84
237.397	-16.88
237.614	-10.21
237.831	-15.26
238.048	-22.02
238.264	-20.28
238.481	-22.57
238.698	-29.91
238.915	-27.19
239.131	-26.33
239.348	-16.77
239.565	-6.02
239.781	2.74
239.998	-0.58
240.215	3.44
240.431	3.94
240.648	8.23
240.865	5.78
241.081	8.48
241.298	5.99
241.514	6.06
241.731	3.58
241.947	3.77
242.164	3.09
242.38	2.75
242.597	1.9
242.814	0.44
243.03	-2.04
243.246	-0.78
243.463	-0.54
243.679	2.69
243.896	1.7
244.112	4.55
244.329	3.59
244.545	4.49
244.762	5.33
244.978	5.04
245.194	9.77
245.411	7.25
245.627	7.4
245.843	5.23
246.06	3.71
246.276	3.98
246.492	1.79
246.709	1.99
246.925	0.34
247.141	-0.13
247.357	0.71
247.574	-0.42
247.79	0.18
248.006	-0.07
248.222	0.13
248.439	0.31
248.655	1
248.871	0.85
249.087	0.85
249.303	1.46
249.519	2.91
249.736	2.87
249.952	3.57
250.168	4.25
250.384	4.88
250.6	4.09
250.816	2.46
251.032	0.57
251.248	-0.91
251.464	1.85
251.68	2.74
251.896	2.37
252.112	1.16
252.328	1.36
252.544	3.18
252.76	2.25
252.976	2.71
253.192	2.65
253.408	2.5
253.624	5.21
253.84	3.24
254.056	6.1
254.272	4.71
254.487	6.32
254.703	5.75
254.919	2.07
255.135	2.94
255.351	2.9
255.567	7.32
255.782	9.57
255.998	7.14
256.214	8.4
256.43	6.96
256.646	8.02
256.861	8.45
257.077	11.96
257.293	12.78
257.508	10.96
257.724	10.93
257.94	6.27
258.155	6.18
258.371	7.37
258.587	5.44
258.802	3.41
259.018	3.54
259.234	2.9
259.449	0.87
259.665	0.66
259.88	1.24
260.096	1.25
260.312	1.23
260.527	0.75
260.743	0.5
260.958	0.21
261.174	0.59
261.389	-0.26
261.605	-1.24
261.82	-0.86
262.036	-1.56
262.251	-2.23
262.466	-3.22
262.682	-3.26
262.897	-2.35
263.113	-2.87
263.328	-2.38
263.543	-2.66
263.759	-3.21
263.974	1.13
264.189	0.89
264.405	1.51
264.62	-0.31
264.835	0.67
265.051	-0.22
265.266	1.34
265.481	-0.26
265.696	1.79
265.912	2.57
266.127	2.55
266.342	0.92
266.557	0
266.773	2.14
266.988	3.61
267.203	2.82
267.418	2.63
267.633	0.82
267.848	3.29
268.064	1.8
268.279	1.37
268.494	1.94
268.709	1.19
268.924	2.03
269.139	2.01
269.354	2.7
269.569	3.63
269.784	4.8
269.999	3.94
270.214	0.53
270.429	1.08
270.644	1
270.859	0.88
271.074	-0.71
271.289	0.02
271.504	-0.82
271.719	-0.27
271.934	-0.32
272.149	-0.61
272.363	0.67
272.578	1.61
272.793	1.14
273.008	0.88
273.223	1.87
273.438	3.08
273.653	2.23
273.867	1.12
274.082	-1.26
274.297	-0.77
274.512	-0.01
274.726	-0.58
274.941	0.44
275.156	0.79
275.371	-0.22
275.585	-0.62
275.8	0.1
276.015	-0.4
276.229	0.21
276.444	0.15
276.659	0.26
276.873	-1.95
277.088	-2.64
277.302	-2.01
277.517	-0.04
277.732	1.31
277.946	1.78
278.161	1.1
278.375	2.2
278.59	2.64
278.804	5.19
279.019	4.82
279.233	5.56
279.448	6.56
279.662	5.71
279.877	4.24
280.091	6.69
280.306	6.24
280.52	5.39
280.735	4.86
280.949	4.87
281.163	3.22
281.378	2.14
281.592	3.47
281.806	2.89
282.021	3.01
282.235	3.04
282.449	0.55
282.664	0.31
282.878	1.75
283.092	1.41
283.307	2.21
283.521	3.68
283.735	3.41
283.949	2.59
284.164	2.78
284.378	1.86
284.592	0.23
284.806	0.53
285.02	0.24
285.234	0.37
285.449	0.78
285.663	-0.81
285.877	-0.69
286.091	0.37
286.305	1.38
286.519	1.63
286.733	2.71
286.947	3.09
287.161	2.94
287.375	2.7
287.589	1.9
287.803	1.6
288.017	1.41
288.231	0.08
288.445	0.52
288.659	0.91
288.873	-1.71
289.087	-2.65
289.301	-1.76
289.515	-2.09
289.729	-0.58
289.943	-0.61
290.157	0.95
290.371	2.29
290.584	2.42
290.798	1.31
291.012	-0.33
291.226	0.72
291.44	0.64
291.654	-0.03
291.867	0.55
292.081	0.34
292.295	1.29
292.509	0.7
292.722	-1.56
292.936	-1.64
293.15	-0.46
293.364	1.5
293.577	1.7
293.791	1.65
294.005	2.38
294.218	1.14
294.432	0.57
294.645	-0.57
294.859	-0.78
295.073	0.56
295.286	1.4
295.5	0.87
295.713	1.03
295.927	1.71
296.14	2.7
296.354	2.54
296.568	3.64
296.781	4.15
296.994	4.51
297.208	4.26
297.421	4.85
297.635	3.77
297.848	2.98
298.062	1.56
298.275	1.82
298.489	1.42
298.702	0.92
298.915	0.94
299.129	0.19
299.342	-0.07
299.555	-0.04
299.769	-1
299.982	-0.01
300.195	1.54
300.409	0.54
300.622	0.31
300.835	-0.66
301.048	0.02
301.262	-0.47
301.475	-0.97
301.688	-0.79
301.901	0.47
302.115	-0.86
302.328	-1.41
302.541	-4.43
302.754	-1.5
302.967	-1.92
303.18	-1.63
303.393	-1.92
303.607	-2.48
303.82	-2.41
304.033	-2.96
304.246	-4.5
304.459	-2.1
304.672	-1.05
304.885	1.34
305.098	0.77
305.311	0.25
305.524	1.91
305.737	0.62
305.95	2.24
306.163	3.9
306.376	4.83
306.589	4.12
306.802	1.88
307.015	2.65
307.228	2.46
307.44	3.63
307.653	5.45
307.866	2.72
308.079	3.89
308.292	3.43
308.505	2.35
308.718	1.7
308.93	3.59
309.143	6.4
309.356	5.59
309.569	5.3
309.781	3.7
309.994	2.41
310.207	3.81
310.42	4.6
310.632	4.5
310.845	4.68
311.058	5.34
311.27	4.54
311.483	3.71
311.696	3.94
311.908	4.58
312.121	5.38
312.333	6.15
312.546	6.49
312.759	6.19
312.971	6.14
313.184	6.54
313.396	6.69
313.609	8.02
313.821	7.24
314.034	5.51
314.246	5.85
314.459	5.4
314.671	4.84
314.884	4.59
315.096	3.24
315.309	4.67
315.521	5.27
315.733	5.24
315.946	4.77
316.158	4.54
316.371	6.01
316.583	5.77
316.795	6.28
317.008	7.77
317.22	6.97
317.432	10.16
317.644	8.47
317.857	8.46
318.069	7.82
318.281	8.61
318.494	10.92
318.706	10.43
318.918	11.6
319.13	10.93
319.342	8.71
319.555	9.4
319.767	7.24
319.979	8.41
320.191	8.28
320.403	9.06
320.615	6.19
320.827	4.74
321.039	5.95
321.252	4
321.464	4.48
321.676	6.22
321.888	7.6
322.1	9.01
322.312	8.86
322.524	8.91
322.736	9.46
322.948	11.21
323.16	11.81
323.372	11.64
323.584	10.63
323.796	12.47
324.007	11.94
324.219	9.56
324.431	8.25
324.643	7.25
324.855	6.43
325.067	5.77
325.279	6.11
325.491	5.84
325.702	5.4
325.914	6.62
326.126	3.96
326.338	4.49
326.55	5.39
326.761	7.05
326.973	8.05
327.185	8.26
327.396	7.06
327.608	5.93
327.82	6.55
328.032	8.11
328.243	8.77
328.455	9.92
328.666	11.33
328.878	12.07
329.09	10.82
329.301	9.51
329.513	10.07
329.725	11.94
329.936	12.37
330.148	12.57
330.359	10.65
330.571	9.3
330.782	8.93
330.994	7.79
331.205	6.68
331.417	7.75
331.628	9.15
331.84	8.66
332.051	8.74
332.262	8.68
332.474	8.84
332.685	10.76
332.897	13.36
333.108	14.49
333.319	14.12
333.531	13.41
333.742	11.74
333.953	11.96
334.165	12.11
334.376	11.25
334.587	12.22
334.799	12.12
335.01	10.53
335.221	9.46
335.432	9.15
335.644	9.47
335.855	11.97
336.066	13.18
336.277	12.66
336.488	13.45
336.7	13.91
336.911	14.04
337.122	13.9
337.333	14.21
337.544	14.16
337.755	13.49
337.966	12.01
338.177	10.55
338.388	11.25
338.599	11.43
338.811	11.32
339.022	11.33
339.233	9.46
339.444	9.28
339.655	9.42
339.866	9.83
340.076	10.75
340.287	10.86
340.498	10.55
340.709	10.52
340.92	10.71
341.131	9.63
341.342	10.86
341.553	11.77
341.764	12.11
341.975	12.68
342.185	11.77
342.396	11.94
342.607	12.69
342.818	13.04
343.029	12.34
343.239	12.16
343.45	12.48
343.661	11.61
343.872	10.93
344.082	10.8
344.293	9.99
344.504	10.46
344.714	9.37
344.925	9.64
345.136	10.02
345.346	11.01
345.557	11.42
345.768	10.82
345.978	10.32
346.189	11.29
346.399	11.17
346.61	12.35
346.821	12.8
347.031	13.03
347.242	13.26
347.452	13.78
347.663	12.87
347.873	12.47
348.084	13.77
348.294	14.67
348.504	14.57
348.715	14.7
348.925	14.17
349.136	14.03
349.346	15.06
349.557	14.63
349.767	13.27
349.977	13.05
350.188	13.06
350.398	12.76
350.608	12.92
350.819	12.46
351.029	12.77
351.239	13.19
351.449	11.86
351.66	11.13
351.87	11.7
352.08	12.79
352.29	13.66
352.501	14.26
352.711	13.73
352.921	12.88
353.131	13.94
353.341	14.87
353.552	13.57
353.762	14.08
353.972	14.96
354.182	14.98
354.392	15.02
354.602	14.24
354.812	13.86
355.022	14.75
355.232	15.3
355.442	14.08
355.652	13.87
355.862	15.03
356.072	15.95
356.282	16.42
356.492	17.27
356.702	16.64
356.912	16.14
357.122	16.17
357.332	15.91
357.542	16.65
357.752	16.49
357.962	15.76
358.171	14.87
358.381	14.84
358.591	14.18
358.801	12.99
359.011	13.65
359.221	15.02
359.43	15.35
359.64	15.97
359.85	15.55
360.06	15.96
360.269	16.26
360.479	16.19
360.689	15.95
360.899	15.52
361.108	15.65
361.318	15.28
361.528	14.76
361.737	14.34
361.947	13.94
362.156	13.64
362.366	14.24
362.576	13.78
362.785	14.78
362.995	14.51
363.204	15.27
363.414	16.02
363.623	16.84
363.833	17.37
364.042	17.84
364.252	18.14
364.461	18.33
364.671	17.59
364.88	18.13
365.09	17.51
365.299	17.13
365.509	17.2
365.718	16.62
365.927	16.59
366.137	16.61
366.346	16.76
366.555	16.67
366.765	15.73
366.974	15.83
367.183	16.34
367.393	16.66
367.602	17.44
367.811	17.26
368.021	17.58
368.23	17.56
368.439	17.53
368.648	17.19
368.857	16.95
369.067	18.23
369.276	19.09
369.485	18.54
369.694	18.39
369.903	19.34
370.112	18.5
370.321	18.27
370.531	17.19
370.74	17.19
370.949	18.16
371.158	18.48
371.367	17.88
371.576	18.03
371.785	18.08
371.994	18.19
372.203	17.85
372.412	18.45
372.621	18.77
372.83	19.39
373.039	19.26
373.248	17.86
373.457	18.13
373.666	18.54
373.874	18.25
374.083	18.26
374.292	18.25
374.501	18.36
374.71	18.09
374.919	17.28
375.128	18.05
375.336	17.61
375.545	18.08
375.754	17.95
375.963	18.19
376.171	18.47
376.38	18.57
376.589	18.02
376.798	17.71
377.006	18.07
377.215	18.71
377.424	18.79
377.632	19.49
377.841	19.26
378.05	18.98
378.258	18.34
378.467	17.87
378.675	17.66
378.884	18.75
379.093	18.64
379.301	18.56
379.51	18.19
379.718	17.72
379.927	18.19
380.135	19.59
380.344	20.56
380.552	21.47
380.761	22.21
380.969	22.71
381.177	22.48
381.386	22.45
381.594	22.55
381.803	23
382.011	23.05
382.219	22.31
382.428	21.71
382.636	21.21
382.845	20.8
383.053	20.62
383.261	20.2
383.469	20.01
383.678	19.95
383.886	20.19
384.094	20.24
384.302	20.15
384.511	20.84
384.719	20.92
384.927	20.91
385.135	20.46
385.343	20.47
385.552	20.27
385.76	20.52
385.968	21.2
386.176	21.25
386.384	21.12
386.592	21.12
386.8	20.73
387.008	20.62
387.216	21.04
387.424	21.48
387.633	21.14
387.841	21.66
388.049	21.48
388.257	21.19
388.465	21.39
388.672	21.3
388.88	21.58
389.088	21.8
389.296	21.82
389.504	22.05
389.712	22.13
389.92	22.47
390.128	22.95
390.336	23.28
390.544	23.84
390.751	23.87
390.959	24.33
391.167	24.19
391.375	23.86
391.583	24
391.79	23.8
391.998	24.07
392.206	24.25
392.414	24.05
392.621	24.09
392.829	23.88
393.037	23.69
393.244	23.91
393.452	24.3
393.66	25.05
393.867	25.12
394.075	25.04
394.283	25.21
394.49	25.39
394.698	25.38
394.905	25.4
395.113	25.6
395.32	26.36
395.528	26.02
395.735	25.91
395.943	25.71
396.15	25.57
396.358	25.8
396.565	26.03
396.773	26.02
396.98	26.01
397.188	26.36
397.395	26.11
397.602	25.66
397.81	26.07
398.017	26.32
398.225	26.57
398.432	27.16
398.639	27.3
398.847	27.05
399.054	27.12
399.261	27.77
399.468	27.93
399.676	27.98
399.883	28.13
400.09	28.4
400.297	28.64
400.505	28.53
400.712	28.54
400.919	28.93
401.126	29.12
401.333	29.27
401.54	29.12
401.748	28.71
401.955	29.04
402.162	28.81
402.369	29.06
402.576	28.81
402.783	29.05
402.99	29.07
403.197	28.91
403.404	29.22
403.611	29.26
403.818	29.6
404.025	30.03
404.232	30.28
404.439	30.52
404.646	30.26
404.853	30.35
405.06	30.35
405.267	30.53
405.474	30.46
405.681	30.47
405.887	30.29
406.094	30.03
406.301	30.07
406.508	30.01
406.715	30.22
406.922	30.32
407.128	30.33
407.335	30.53
407.542	30.53
407.749	30.78
407.955	30.74
408.162	30.84
408.369	30.92
408.575	31.04
408.782	31.32
408.989	31.42
409.195	31.05
409.402	31
409.609	30.75
409.815	30.57
410.022	30.68
410.228	30.77
410.435	30.79
410.642	30.76
410.848	30.49
411.055	30.25
411.261	30.15
411.468	30.37
411.674	30.44
411.881	30.54
412.087	30.57
412.294	30.35
412.5	30.3
412.706	30.59
412.913	30.72
413.119	30.68
413.326	30.48
413.532	30.36
413.738	30.14
413.945	30.4
414.151	30.38
414.357	30.64
414.564	30.69
414.77	30.64
414.976	30.75
415.182	30.63
415.389	30.66
415.595	30.73
415.801	31.08
416.007	31.33
416.214	31.13
416.42	31.14
416.626	31.07
416.832	30.89
417.038	30.91
417.244	30.66
417.45	30.77
417.657	30.76
417.863	30.93
418.069	30.67
418.275	30.58
418.481	30.56
418.687	30.43
418.893	30.6
419.099	30.66
419.305	30.64
419.511	30.56
419.717	30.44
419.923	30.31
420.129	30.19
420.335	30.14
420.541	30.24
420.746	30.25
420.952	30.27
421.158	30.03
421.364	29.98
421.57	29.99
421.776	29.95
421.982	29.94
422.187	30.02
422.393	30
422.599	29.93
422.805	29.8
423.01	29.82
423.216	29.78
423.422	29.66
423.628	29.57
423.833	29.48
424.039	29.54
424.245	29.57
424.45	29.77
424.656	29.83
424.862	29.87
425.067	29.95
425.273	29.96
425.478	30.04
425.684	30.21
425.889	30.32
426.095	30.43
426.301	30.41
426.506	30.33
426.712	30.08
426.917	29.92
427.123	29.91
427.328	29.89
427.533	29.9
427.739	29.71
427.944	29.45
428.15	29.44
428.355	29.18
428.561	29.22
428.766	29.29
428.971	29.13
429.177	29.03
429.382	29.12
429.587	29.02
429.793	28.8
429.998	29.09
430.203	29.18
430.408	29
430.614	29.07
430.819	28.98
431.024	28.91
431.229	29.12
431.434	29.06
431.64	29.01
431.845	29.08
432.05	29.3
432.255	29.25
432.46	29.47
432.665	29.61
432.87	29.5
433.076	29.36
433.281	29.44
433.486	29.52
433.691	29.67
433.896	29.67
434.101	29.53
434.306	29.54
434.511	29.33
434.716	29.16
434.921	29.11
435.126	29.32
435.331	29.51
435.535	29.46
435.74	29.45
435.945	29.5
436.15	29.53
436.355	29.61
436.56	29.42
436.765	29.52
436.97	29.51
437.174	29.61
437.379	29.62
437.584	29.53
437.789	29.47
437.993	29.34
438.198	29.19
438.403	28.94
438.608	29.01
438.812	29.1
439.017	29.12
439.222	29.39
439.426	29.25
439.631	29.07
439.836	29.21
440.04	29.19
440.245	29.23
440.45	29.37
440.654	29.44
440.859	29.45
441.063	29.35
441.268	29.21
441.472	29
441.677	29.14
441.881	29.2
442.086	29.11
442.29	29.29
442.495	29.36
442.699	29.27
442.904	29.37
443.108	29.32
443.312	29.57
443.517	29.74
443.721	29.65
443.925	29.29
444.13	29.38
444.334	29.36
444.538	29.12
444.743	28.99
444.947	28.96
445.151	28.89
445.356	28.87
445.56	28.66
445.764	28.68
445.968	28.81
446.173	29.05
446.377	29.05
446.581	29.08
446.785	29.16
446.989	29.21
447.193	29.19
447.398	29.3
447.602	29.3
447.806	29.28
448.01	29.21
448.214	29.3
448.418	29.28
448.622	29.02
448.826	29.03
449.03	28.9
449.234	28.73
449.438	28.56
449.642	28.51
449.846	28.32
450.05	28.34
450.254	28.28
450.458	28.11
450.662	28.09
450.866	28.26
451.069	28.01
451.273	28.13
451.477	28.3
451.681	28.64
451.885	28.48
452.089	28.68
452.292	28.75
452.496	28.72
452.7	28.65
452.904	28.57
453.107	28.56
453.311	28.72
453.515	28.75
453.719	28.63
453.922	28.44
454.126	28.43
454.33	28.48
454.533	28.39
454.737	28.48
454.94	28.58
455.144	28.48
455.348	28.53
455.551	28.47
455.755	28.29
455.958	28.27
456.162	28.29
456.365	28.41
456.569	28.35
456.772	28.28
456.976	28.33
457.179	28.21
457.383	28.25
457.586	28.21
457.79	28.31
457.993	28.4
458.196	28.26
458.4	28.23
458.603	28.27
458.807	28.39
459.01	28.73
459.213	28.74
459.417	28.73
459.62	28.8
459.823	28.85
460.026	28.92
460.23	28.95
460.433	29.16
460.636	29.19
460.839	29.11
461.042	29.16
461.246	29.07
461.449	29.08
461.652	29.28
461.855	29.39
462.058	29.59
462.261	29.58
462.464	29.65
462.668	29.66
462.871	29.67
463.074	29.73
463.277	29.75
463.48	29.51
463.683	29.44
463.886	29.18
464.089	29.28
464.292	28.9
464.495	28.96
464.698	28.83
464.901	28.92
465.104	29.18
465.306	29.3
465.509	29.13
465.712	29.36
465.915	29.64
466.118	29.87
466.321	29.75
466.524	30.03
466.726	30.18
466.929	30.42
467.132	30.41
467.335	30.25
467.538	30.24
467.74	30.35
467.943	30.31
468.146	29.95
468.348	29.93
468.551	29.91
468.754	29.71
468.956	29.58
469.159	29.43
469.362	29.39
469.564	29.5
469.767	29.57
469.969	29.52
470.172	29.62
470.375	29.72
470.577	29.88
470.78	29.97
470.982	30.12
471.185	30.09
471.387	29.99
471.59	30.06
471.792	29.96
471.995	29.89
472.197	29.93
472.399	29.92
472.602	30.04
472.804	29.99
473.007	29.96
473.209	29.93
473.411	29.9
473.614	30.09
473.816	30
474.018	30.04
474.22	30.18
474.423	30.12
474.625	30.06
474.827	30.13
475.03	30.17
475.232	30.23
475.434	30.5
475.636	30.31
475.838	30.17
476.04	29.91
476.243	30
476.445	29.93
476.647	29.84
476.849	29.7
477.051	29.57
477.253	29.43
477.455	29.24
477.657	29.23
477.859	29.39
478.061	29.56
478.263	29.83
478.465	29.68
478.667	29.63
478.869	29.81
479.071	30
479.273	29.98
479.475	30.01
479.677	30.22
479.879	30.08
480.081	30.01
480.283	29.92
480.485	30.05
480.686	30.06
480.888	30.16
481.09	29.97
481.292	29.9
481.494	29.86
481.695	29.81
481.897	29.71
482.099	29.67
482.301	29.71
482.502	29.69
482.704	29.7
482.906	29.72
483.107	29.72
483.309	29.74
483.511	29.81
483.712	29.85
483.914	29.88
484.115	29.94
484.317	29.91
484.519	29.89
484.72	29.93
484.922	29.84
485.123	29.84
485.325	29.84
485.526	29.86
485.728	29.73
485.929	29.77
486.131	29.81
486.332	29.72
486.534	29.73
486.735	29.82
486.936	29.76
487.138	29.83
487.339	29.78
487.541	29.72
487.742	29.77
487.943	29.75
488.144	29.7
488.346	29.59
488.547	29.62
488.748	29.66
488.95	29.51
489.151	29.54
489.352	29.53
489.553	29.68
489.755	29.64
489.956	29.56
490.157	29.69
490.358	29.74
490.559	29.87
490.76	29.8
490.961	29.86
491.163	29.97
491.364	30.02
491.565	29.98
491.766	29.83
491.967	29.9
492.168	29.93
492.369	29.88
492.57	29.83
492.771	29.71
492.972	29.71
493.173	29.56
493.374	29.48
493.575	29.33
493.776	29.27
493.976	29.4
494.177	29.33
494.378	29.36
494.579	29.47
494.78	29.47
494.981	29.49
495.182	29.44
495.382	29.61
495.583	29.63
495.784	29.67
495.985	29.68
496.185	29.62
496.386	29.59
496.587	29.48
496.788	29.37
496.988	29.47
497.189	29.57
497.39	29.76
497.59	29.76
497.791	29.83
497.992	29.81
498.192	29.8
498.393	29.81
498.593	29.89
498.794	29.9
498.994	30.05
499.195	30.08
499.395	30.05
499.596	29.83
499.796	29.83
499.997	29.81
500.197	29.86
500.398	29.89
500.598	29.95
500.799	29.98
500.999	30.07
501.199	29.87
501.4	29.77
501.6	29.61
501.801	29.77
502.001	29.57
502.201	29.74
502.402	29.7
502.602	29.78
502.802	29.8
503.002	29.74
503.203	29.56
503.403	29.77
503.603	29.75
503.803	29.94
504.003	29.91
504.204	30.12
504.404	30.13
504.604	30.21
504.804	30.14
505.004	30.13
505.204	30.22
505.404	30.4
505.604	30.37
505.804	30.25
506.005	30.14
506.205	30.13
506.405	30.18
506.605	30.17
506.805	30.26
507.005	30.34
507.204	30.33
507.404	30.38
507.604	30.35
507.804	30.35
508.004	30.44
508.204	30.51
508.404	30.57
508.604	30.59
508.804	30.53
509.003	30.43
509.203	30.43
509.403	30.41
509.603	30.34
509.803	30.31
510.002	30.24
510.202	30.32
510.402	30.4
510.602	30.41
510.801	30.31
511.001	30.34
511.201	30.37
511.4	30.35
511.6	30.46
511.8	30.39
511.999	30.52
512.199	30.7
512.398	30.67
512.598	30.47
512.797	30.49
512.997	30.53
513.197	30.59
513.396	30.6
513.596	30.67
513.795	30.63
513.994	30.65
514.194	30.62
514.393	30.42
514.593	30.47
514.792	30.69
514.992	30.58
515.191	30.61
515.39	30.47
515.59	30.46
515.789	30.44
515.988	30.41
516.188	30.52
516.387	30.53
516.586	30.75
516.786	30.69
516.985	30.69
517.184	30.98
517.383	30.9
517.582	30.95
517.782	31.03
517.981	31.09
518.18	31.02
518.379	31.09
518.578	31.03
518.777	30.9
518.976	30.91
519.176	30.88
519.375	30.84
519.574	30.95
519.773	30.93
519.972	30.88
520.171	30.86
520.37	30.89
520.569	30.74
520.768	30.82
520.967	30.91
521.166	30.94
521.365	30.86
521.564	30.78
521.762	30.71
521.961	30.71
522.16	30.89
522.359	30.85
522.558	30.84
522.757	30.99
522.956	30.94
523.154	30.99
523.353	31.12
523.552	31.4
523.751	31.34
523.949	31.34
524.148	31.37
524.347	31.22
524.546	31.25
524.744	31.27
524.943	31.28
525.142	31.29
525.34	31.36
525.539	31.21
525.737	31.12
525.936	31.21
526.135	31.23
526.333	31.26
526.532	31.27
526.73	31.22
526.929	31.27
527.127	31.28
527.326	31.3
527.524	31.19
527.723	31.2
527.921	31.25
528.12	31.22
528.318	31.22
528.516	31.2
528.715	31.21
528.913	31.25
529.112	31.23
529.31	31.21
529.508	31.24
529.707	31.21
529.905	31.2
530.103	31.15
530.301	31.12
530.5	31.1
530.698	31.18
530.896	31.19
531.094	31.26
531.293	31.31
531.491	31.31
531.689	31.23
531.887	31.36
532.085	31.45
532.283	31.54
532.481	31.53
532.68	31.5
532.878	31.38
533.076	31.35
533.274	31.35
533.472	31.25
533.67	31.22
533.868	31.23
534.066	31.21
534.264	31.14
534.462	31.04
534.66	31.03
534.858	30.94
535.056	31
535.253	31.01
535.451	30.99
535.649	31.06
535.847	31.08
536.045	31.14
536.243	31.22
536.441	31.29
536.638	31.33
536.836	31.4
537.034	31.59
537.232	31.57
537.43	31.45
537.627	31.25
537.825	31.3
538.023	31.26
538.22	31.17
538.418	30.97
538.616	30.8
538.813	30.81
539.011	30.86
539.209	30.8
539.406	30.8
539.604	31
539.801	31.22
539.999	31.19
540.196	31.26
540.394	31.3
540.591	31.37
540.789	31.41
540.986	31.32
541.184	31.23
541.381	31.18
541.579	31.13
541.776	31.03
541.974	30.9
542.171	30.89
542.368	30.81
542.566	30.79
542.763	30.67
542.96	30.66
543.158	30.6
543.355	30.63
543.552	30.69
543.75	30.6
543.947	30.55
544.144	30.57
544.341	30.48
544.539	30.52
544.736	30.46
544.933	30.49
545.13	30.49
545.327	30.56
545.524	30.48
545.722	30.39
545.919	30.45
546.116	30.59
546.313	30.52
546.51	30.56
546.707	30.53
546.904	30.54
547.101	30.59
547.298	30.59
547.495	30.59
547.692	30.54
547.889	30.51
548.086	30.6
548.283	30.72
548.48	30.85
548.677	30.8
548.874	30.79
549.07	30.97
549.267	30.94
549.464	31.16
549.661	31.37
549.858	31.36
550.055	31.51
550.251	31.52
550.448	31.42
550.645	31.47
550.842	31.41
551.038	31.49
551.235	31.31
551.432	31.55
551.628	31.3
551.825	31.07
552.022	31.28
552.218	31.16
552.415	31.07
552.612	31.03
552.808	30.82
553.005	30.76
553.201	30.78
553.398	30.76
553.594	30.58
553.791	30.46
553.987	30.64
554.184	30.45
554.38	30.51
554.577	30.49
554.773	30.51
554.97	30.62
555.166	30.75
555.362	30.86
555.559	30.93
555.755	30.89
555.952	31.05
556.148	31.02
556.344	30.89
556.541	30.85
556.737	30.71
556.933	30.66
557.129	30.76
557.326	30.91
557.522	30.85
557.718	30.86
557.914	30.74
558.11	30.87
558.307	30.5
558.503	31.01
558.699	31.11
558.895	31.38
559.091	31.21
559.287	31.06
559.483	30.97
559.679	30.71
559.876	30.65
560.072	30.85
560.268	30.82
560.464	31.01
560.66	30.77
560.856	30.58
561.052	30.6
561.247	30.95
561.443	30.97
561.639	31.04
561.835	31.27
562.031	31.22
562.227	31.35
562.423	31.09
562.619	31.24
562.815	31.36
563.01	31.54
563.206	31.31
563.402	31.23
563.598	31.21
563.793	31.21
563.989	31.08
564.185	30.99
564.381	30.72
564.576	30.83
564.772	30.64
564.968	30.52
565.163	30.49
565.359	30.47
565.555	30.42
565.75	30.49
565.946	30.48
566.141	30.42
566.337	30.61
566.532	30.72
566.728	30.81
566.923	30.8
567.119	30.88
567.314	30.97
567.51	31.16
567.705	31.03
567.901	31.09
568.096	31.13
568.292	31.09
568.487	30.97
568.682	30.96
568.878	30.78
569.073	30.97
569.268	31.07
569.464	30.9
569.659	30.97
569.854	31.1
570.05	31.03
570.245	30.84
570.44	30.94
570.635	30.9
570.831	30.95
571.026	31.09
571.221	31.08
571.416	30.85
571.611	30.83
571.806	30.72
572.002	30.69
572.197	30.73
572.392	30.69
572.587	30.76
572.782	30.91
572.977	30.94
573.172	31.08
573.367	31.13
573.562	31.23
573.757	31.24
573.952	31.16
574.147	31.04
574.342	30.95
574.537	31.05
574.732	31.04
574.927	30.81
575.121	30.72
575.316	30.59
575.511	30.49
575.706	30.46
575.901	30.52
576.096	30.57
576.29	30.78
576.485	30.89
576.68	30.89
576.875	30.96
577.069	31.04
577.264	30.93
577.459	30.89
577.654	30.94
577.848	30.83
578.043	30.76
578.238	30.91
578.432	30.76
578.627	30.59
578.821	30.59
579.016	30.53
579.21	30.67
579.405	30.69
579.6	30.76
579.794	30.68
579.989	30.78
580.183	31.06
580.378	30.96
580.572	30.68
580.766	30.49
580.961	30.67
581.155	30.38
581.35	30.47
581.544	30.74
581.738	30.74
581.933	30.8
582.127	30.72
582.321	30.33
582.516	30.24
582.71	30.48
582.904	30.85
583.099	30.77
583.293	30.79
583.487	30.58
583.681	30.28
583.875	30.28
584.07	30.28
584.264	30.46
584.458	30.67
584.652	30.59
584.846	30.6
585.04	30.38
585.234	30.23
585.428	30.38
585.623	30.44
585.817	30.55
586.011	30.62
586.205	30.3
586.399	30.46
586.593	30.29
586.787	30.46
586.981	30.5
587.174	30.87
587.368	30.65
587.562	30.57
587.756	30.48
587.95	30.52
588.144	30.39
588.338	30.54
588.532	30.35
588.725	30.48
588.919	30.39
589.113	30.48
589.307	30.04
589.501	30.47
589.694	30.81
589.888	30.98
590.082	30.85
590.275	30.93
590.469	30.89
590.663	30.77
590.856	30.58
591.05	30.67
591.244	30.64
591.437	30.93
591.631	30.8
591.824	30.48
592.018	30.3
592.212	30.49
592.405	30.44
592.599	30.55
592.792	30.49
592.986	30.68
593.179	30.59
593.372	30.73
593.566	30.44
593.759	30.4
593.953	30.54
594.146	30.52
594.339	30.49
594.533	30.43
594.726	30.31
594.92	30.46
595.113	30.37
595.306	30.35
595.499	30.16
595.693	30.57
595.886	30.58
596.079	30.51
596.272	30.54
596.466	30.51
596.659	30.55
596.852	30.6
597.045	30.62
597.238	30.56
597.431	30.54
597.624	30.66
597.818	30.53
598.011	30.68
598.204	30.69
598.397	30.76
598.59	31
598.783	31
598.976	31.2
599.169	31.29
599.362	31.24
599.555	31.52
599.748	31.3
599.941	31.24
600.134	30.95
600.326	31.12
600.519	31.15
600.712	30.59
600.905	30.45
601.098	30.53
601.291	30.61
601.483	30.94
601.676	30.7
601.869	30.8
602.062	30.97
602.255	31.34
602.447	31.34
602.64	31.45
602.833	31.54
603.025	31.77
603.218	31.73
603.411	31.47
603.603	31.38
603.796	31.37
603.989	31.49
604.181	31.28
604.374	31.09
604.566	30.88
604.759	30.77
604.951	30.91
605.144	30.83
605.336	30.8
605.529	30.88
605.721	30.82
605.914	30.96
606.106	30.65
606.299	30.76
606.491	30.97
606.683	31.17
606.876	31.13
607.068	30.95
607.26	30.89
607.453	30.76
607.645	30.64
607.837	30.86
608.03	30.67
608.222	31
608.414	31.03
608.606	30.63
608.799	30.37
608.991	30.49
609.183	30.75
609.375	30.52
609.567	30.47
609.759	30.47
609.952	30.27
610.144	30.26
610.336	29.9
610.528	29.7
610.72	29.69
610.912	29.73
611.104	29.57
611.296	29.04
611.488	28.98
611.68	28.86
611.872	28.73
612.064	28.71
612.256	28.69
612.448	28.89
612.64	28.69
612.832	28.84
613.023	29.06
613.215	29.05
613.407	29.41
613.599	29.64
613.791	29.81
613.983	30.13
614.174	29.89
614.366	29.71
614.558	29.6
614.75	29.94
614.941	30.06
615.133	30.04
615.325	29.96
615.516	30.08
615.708	30.24
615.9	30.2
616.091	30.29
616.283	30.59
616.475	30.79
616.666	31.26
616.858	31.17
617.049	31.12
617.241	31.23
617.432	31.36
617.624	31.11
617.815	30.88
618.007	30.82
618.198	30.66
618.39	30.66
618.581	30.49
618.773	30
618.964	29.8
619.155	29.64
619.347	29.48
619.538	29.38
619.729	29.53
619.921	29.66
620.112	29.86
620.303	29.61
620.494	29.53
620.686	29.77
620.877	29.83
621.068	29.93
621.259	29.97
621.451	29.99
621.642	30.3
621.833	30.07
622.024	30.5
622.215	30.42
622.406	30.64
622.597	30.51
622.788	30.63
622.98	30.92
623.171	31.03
623.362	30.83
623.553	30.78
623.744	30.71
623.935	31.24
624.126	30.9
624.317	30.97
624.508	31
624.698	31.14
624.889	30.73
625.08	30.78
625.271	30.94
625.462	31.35
625.653	31.24
625.844	31.06
626.034	31.01
626.225	30.88
626.416	30.79
626.607	30.63
626.798	30.6
626.988	30.92
627.179	31.08
627.37	31.11
627.56	30.91
627.751	30.92
627.942	30.92
628.132	30.64
628.323	30.64
628.514	30.69
628.704	30.87
628.895	31.08
629.085	31.19
629.276	30.73
629.466	30.64
629.657	30.44
629.847	30.62
630.038	30.72
630.228	30.91
630.419	31.15
630.609	31.12
630.8	30.94
630.99	30.92
631.181	30.71
631.371	30.71
631.561	30.79
631.752	31.08
631.942	31.04
632.132	31.18
632.323	31.33
632.513	30.99
632.703	31.19
632.893	31.26
633.084	31.2
633.274	31.33
633.464	31.35
633.654	31.24
633.844	31.4
634.034	31.07
634.225	31.15
634.415	30.99
634.605	31.26
634.795	31.06
634.985	31.19
635.175	30.94
635.365	31
635.555	30.69
635.745	30.78
635.935	30.45
636.125	30.44
636.315	30.1
636.505	29.78
636.695	29.75
636.885	29.87
637.075	29.54
637.265	29.74
637.455	29.58
637.644	30.17
637.834	30.39
638.024	30.64
638.214	31.35
638.404	31.48
638.593	31.47
638.783	31.14
638.973	30.97
639.163	31.22
639.352	31.55
639.542	31.65
639.732	31.6
639.921	31.38
640.111	31.39
640.301	31.01
640.49	31.22
640.68	31.4
640.87	31.75
641.059	31.58
641.249	31.98
641.438	31.37
641.628	31.32
641.817	31.64
642.007	31.43
642.196	31.25
642.386	31
642.575	30.26
642.764	30.52
642.954	30.38
643.143	30.74
643.333	30.36
643.522	30.48
643.711	30.73
643.901	30.31
644.09	30.22
644.279	30.36
644.469	30.48
644.658	31.04
644.847	30.66
645.036	30.25
645.226	30.44
645.415	30.76
645.604	30.6
645.793	30.29
645.982	30.21
646.171	30.31
646.361	30.39
646.55	30.33
646.739	29.94
646.928	30.02
647.117	30.75
647.306	30.44
647.495	30.49
647.684	30.92
647.873	31.19
648.062	31.49
648.251	31.86
648.44	31.88
648.629	31.87
648.818	32.15
649.007	32.03
649.196	31.93
649.384	31.72
649.573	31.35
649.762	31.28
649.951	31.16
650.14	31
650.328	30.66
650.517	30.39
650.706	31
650.895	31
651.083	31.23
651.272	30.66
651.461	30.77
651.65	30.82
651.838	30.57
652.027	30.35
652.216	30.41
652.404	30.65
652.593	31.11
652.781	30.63
652.97	30.67
653.158	30.68
653.347	31.24
653.535	31.44
653.724	31.34
653.912	31.3
654.101	31.33
654.289	31.52
654.478	31.42
654.666	31.25
654.855	31.16
655.043	30.88
655.231	30.78
655.42	30.56
655.608	30.12
655.796	30.57
655.985	30.57
656.173	30.41
656.361	30.17
656.55	29.75
656.738	29.28
656.926	29.4
657.114	29.85
657.302	29.83
657.491	29.96
657.679	30.36
657.867	30.06
658.055	30.35
658.243	30.36
658.431	30.25
658.619	30.43
658.807	30.35
658.996	30.36
659.184	30.58
659.372	30.94
659.56	30.98
659.748	30.89
659.936	30.83
660.124	30.46
660.311	30.31
660.499	30.33
660.687	30.12
660.875	30.38
661.063	30.46
661.251	30.1
661.439	29.73
661.627	29.47
661.814	29.49
662.002	29.79
662.19	30.29
662.378	30.63
662.565	30.97
662.753	31.47
662.941	31.58
663.129	31.56
663.316	31.66
663.504	31.87
663.692	31.83
663.879	31.63
664.067	31.39
664.254	31.47
664.442	31.7
664.63	31.74
664.817	31.33
665.005	30.54
665.192	30.31
665.38	30.49
665.567	30.41
665.755	30.65
665.942	30.85
666.13	30.51
666.317	30.04
666.504	30.31
666.692	30.22
666.879	30.76
667.067	31.79
667.254	31.72
667.441	31.62
667.629	31.95
667.816	32.13
668.003	31.95
668.19	32.33
668.378	32.25
668.565	31.5
668.752	31.36
668.939	31.17
669.127	30.77
669.314	30.63
669.501	30.23
669.688	30.14
669.875	30.08
670.062	30.3
670.249	30.1
670.436	30.6
670.623	30.62
670.81	30.35
670.997	30.59
671.184	30.73
671.371	31.03
671.558	31.39
671.745	31.01
671.932	30.54
672.119	30.66
672.306	30.7
672.493	30.15
672.68	30.57
672.867	30.76
673.054	29.85
673.24	30.11
673.427	30.05
673.614	30.19
673.801	30.55
673.988	30.99
674.174	30.93
674.361	31.01
674.548	31.72
674.734	31.47
674.921	31.41
675.108	32.03
675.294	31.69
675.481	31.82
675.668	31.62
675.854	31.85
676.041	31.73
676.227	31.57
676.414	31.62
676.601	31.37
676.787	31.57
676.974	31.59
677.16	31.06
677.347	31.5
677.533	31.83
677.719	31.69
677.906	31.61
678.092	31.48
678.279	31.65
678.465	31.05
678.651	31.27
678.838	31.08
679.024	31.05
679.21	31.5
679.397	31.26
679.583	31.24
679.769	31.26
679.955	30.99
680.142	31.28
680.328	31.26
680.514	31.47
680.7	31.05
680.886	30.98
681.073	31.54
681.259	31.41
681.445	31.26
681.631	30.81
681.817	30.76
682.003	30.92
682.189	30.9
682.375	30.8
682.561	30.62
682.747	30.65
682.933	30.6
683.119	29.84
683.305	29.87
683.491	30.26
683.677	30.23
683.863	30.15
684.049	30.36
684.235	29.69
684.42	29.94
684.606	30.32
684.792	30.44
684.978	30.96
685.164	31.04
685.349	31.1
685.535	31.05
685.721	31.5
685.907	31.17
686.092	30.35
686.278	30.45
686.464	29.71
686.649	29.8
686.835	29.73
687.021	29.58
687.206	29.56
687.392	29.89
687.577	29.85
687.763	29.58
687.948	29.67
688.134	30.2
688.319	30.54
688.505	31.15
688.69	31
688.876	31.09
689.061	31.3
689.247	31.43
689.432	30.84
689.618	30.61
689.803	30.5
689.988	30.83
690.174	30.41
690.359	30.37
690.544	30.03
690.73	30.27
690.915	30.09
691.1	29.79
691.285	29.76
691.471	30.08
691.656	30.26
691.841	30.88
692.026	31.15
692.211	31.44
692.396	31.27
692.582	31.52
692.767	31.72
692.952	31.82
693.137	31.75
693.322	32.29
693.507	32.38
693.692	31.9
693.877	31.16
694.062	30.92
694.247	31.24
694.432	31.64
694.617	30.99
694.802	31.07
694.987	31.19
695.172	31.08
695.357	30.72
695.541	30.82
695.726	30.85
695.911	31.32
696.096	31.5
696.281	31.02
696.466	31.11
696.65	31.44
696.835	30.87
697.02	30.78
697.204	30.72
697.389	30.53
697.574	30.3
697.759	30.49
697.943	30.35
698.128	30.19
698.312	30.1
698.497	29.85
698.682	30.11
698.866	30.28
699.051	30.3
699.235	30.23
699.42	30.19
699.604	30.29
699.789	30.33
699.973	30.34
700.158	30.37
700.342	30.94
700.527	31.33
700.711	31.36
700.895	31.73
701.08	31.51
701.264	32.09
701.448	32.39
701.633	32.7
701.817	32.59
702.001	32.7
702.186	32.53
702.37	31.95
702.554	31.9
702.738	31.47
702.923	31.07
703.107	31.21
703.291	30.66
703.475	31.71
703.659	31.52
703.843	31.51
704.027	31.77
704.212	31.9
704.396	31.79
704.58	31.72
704.764	31.95
704.948	31.72
705.132	31.64
705.316	31.47
705.5	30.2
705.684	30.25
705.868	30.33
706.052	30.16
706.235	29.67
706.419	29.58
706.603	30.1
706.787	30.53
706.971	30.75
707.155	31.15
707.339	31.12
707.522	31.22
707.706	30.8
707.89	30.62
708.074	30.38
708.257	31.08
708.441	31.49
708.625	30.97
708.808	30.56
708.992	30.3
709.176	30.19
709.359	30.94
709.543	30.48
709.727	30.44
709.91	30.03
710.094	30.45
710.277	30.56
710.461	30.16
710.644	29.39
710.828	29.31
711.011	29.43
711.195	29.69
711.378	29.2
711.562	29.85
711.745	30.01
711.928	30.71
712.112	30.28
712.295	30.26
712.478	30.69
712.662	31.27
712.845	31.25
713.028	30.97
713.212	30.61
713.395	30.51
713.578	30.39
713.761	30.97
713.945	30.51
714.128	30.64
714.311	30.18
714.494	30.64
714.677	31.24
714.86	30.86
715.043	30.68
715.227	31.27
715.41	31.34
715.593	31.5
715.776	31.17
715.959	31.77
716.142	31.78
716.325	31.86
716.508	31.02
716.691	29.88
716.874	30.38
717.057	30.96
717.239	29.98
717.422	29.6
717.605	29.01
717.788	29.42
717.971	29.11
718.154	29.39
718.337	30.01
718.519	30.57
718.702	31.23
718.885	30.74
719.068	30.76
719.25	30.65
719.433	30.61
719.616	30.4
719.798	29.64
719.981	29.55
720.164	28.99
720.346	28.96
720.529	28.51
720.712	28.62
720.894	29.44
721.077	29.22
721.259	30.02
721.442	30.89
721.624	31.6
721.807	31.43
721.989	30.37
722.172	30.73
722.354	30.45
722.537	30.69
722.719	30.33
722.901	30.48
723.084	30.81
723.266	30.1
723.448	30.17
723.631	31
723.813	30.93
723.995	31.99
724.178	31.47
724.36	31.24
724.542	30.7
724.724	31.74
724.907	31.53
725.089	31.55
725.271	32.55
725.453	32.04
725.635	31.44
725.817	31.02
725.999	30.79
726.181	30.12
726.364	30.06
726.546	30.07
726.728	29.68
726.91	29.14
727.092	28.73
727.274	27.67
727.456	27.8
727.638	27.07
727.819	28.26
728.001	28.77
728.183	30.1
728.365	30.07
728.547	31.72
728.729	31.63
728.911	31.87
729.093	31.75
729.274	33.12
729.456	32.52
729.638	32.9
729.82	32.49
730.001	33.23
730.183	32.2
730.365	32.32
730.546	30.77
730.728	30.7
730.91	30.41
731.091	30.2
731.273	29.51
731.455	30.17
731.636	30.61
731.818	30.63
731.999	29.75
732.181	30.39
732.362	30.75
732.544	31.42
732.725	31.34
732.907	32.22
733.088	32.26
733.27	31.8
733.451	31.73
733.633	30.92
733.814	29.89
733.995	29.63
734.177	28.52
734.358	27.2
734.539	26.23
734.721	24.4
734.902	23.9
735.083	24.17
735.264	24.84
735.446	25
735.627	25.3
735.808	26.94
735.989	26.65
736.17	27.68
736.351	28.58
736.533	29.47
736.714	32.03
736.895	31.29
737.076	31.63
737.257	31.28
737.438	31.14
737.619	31.5
737.8	30.78
737.981	31.42
738.162	33.32
738.343	33.53
738.524	33.5
738.705	32.33
738.886	31.95
739.067	30.73
739.247	30.89
739.428	30.23
739.609	28.92
739.79	28.53
739.971	27.63
740.151	25.32
740.332	24.86
740.513	24.17
740.694	24.29
740.874	26.27
741.055	27.99
741.236	26.79
741.417	26.73
741.597	26.78
741.778	26.66
741.958	27.86
742.139	28.64
742.32	28.88
742.5	30.18
742.681	30.63
742.861	30.58
743.042	29.01
743.222	30.43
743.403	30.75
743.583	32.84
743.764	33.52
743.944	32.99
744.124	33.1
744.305	33.75
744.485	32.28
744.666	32.65
744.846	31.58
745.026	32.17
745.207	32.29
745.387	32.31
745.567	31.79
745.747	32.37
745.928	32.04
746.108	32.54
746.288	32.61
746.468	32.69
746.648	32.26
746.829	31.42
747.009	32.22
747.189	31.97
747.369	32.09
747.549	30.88
747.729	30.17
747.909	30.75
748.089	29.5
748.269	29.5
748.449	30.27
748.629	30.37
748.809	31.23
748.989	30.8
749.169	30.29
749.349	30.74
749.529	31.46
749.709	31.12
749.889	30.26
750.068	30.59
750.248	29.76
750.428	31.17
750.608	29.63
750.788	29.32
750.967	29.34
751.147	29.02
751.327	29.09
751.507	28.51
751.686	29.08
751.866	30.07
752.046	30.97
752.225	31.41
752.405	29.32
752.585	30.66
752.764	30.55
752.944	30.38
753.123	30.42
753.303	29.8
753.482	30.16
753.662	29.17
753.841	29.28
754.021	27.89
754.2	27.73
754.38	27.78
754.559	27.11
754.739	27.5
754.918	26.49
755.097	27.25
755.277	27.51
755.456	27.8
755.635	28.39
755.815	28.45
755.994	30.21
756.173	30.19
756.352	29.51
756.532	29.24
756.711	29.29
756.89	30.18
757.069	29.36
757.248	28.72
757.427	29.62
757.607	30.74
757.786	29.67
757.965	29.36
758.144	30.33
758.323	31.63
758.502	32.71
758.681	32.32
758.86	32.14
759.039	32.92
759.218	33.26
759.397	31.09
759.576	30.35
759.755	31.44
759.934	30.5
760.113	30.57
760.291	30.26
760.47	30.18
760.649	30.17
760.828	30.38
761.007	30.2
761.186	30.9
761.364	32.28
761.543	32.36
761.722	31.51
761.901	31.68
762.079	30.14
762.258	29.39
762.437	29.69
762.615	29.15
762.794	29.27
762.972	28.61
763.151	28.85
763.33	28.14
763.508	28.4
763.687	29.42
763.865	29.76
764.044	30.66
764.222	30.75
764.401	30.6
764.579	30.72
764.758	31.14
764.936	32.79
765.114	32.81
765.293	33.35
765.471	33.19
765.65	32.82
765.828	32.1
766.006	31.02
766.184	30.44
766.363	30.21
766.541	31.08
766.719	30.56
766.898	29.03
767.076	28.61
767.254	28.32
767.432	28.78
767.61	28.12
767.788	28.84
767.967	29.56
768.145	31.58
768.323	31.59
768.501	32.06
768.679	31.24
768.857	31.91
769.035	31.25
769.213	32.47
769.391	31.52
769.569	31.8
769.747	31
769.925	31.7
770.103	32.14
770.281	30.4
770.459	29
770.636	29.74
770.814	30.47
770.992	31.74
771.17	29.47
771.348	31.24
771.525	31.13
771.703	30.51
771.881	30.06
772.059	29.35
772.236	31
772.414	31.57
772.592	33.39
772.769	30.68
772.947	30.98
773.125	32.42
773.302	29.03
773.48	27.62
773.657	28.46
773.835	27.72
774.013	25.74
774.19	26.67
774.368	25.45
774.545	21.62
774.723	25.03
774.9	22.94
775.077	22.53
775.255	24.76
775.432	25.65
775.61	28.02
775.787	27.66
775.964	29
776.142	27.98
776.319	30.58
776.496	33.15
776.674	30.91
776.851	32.4
777.028	32.97
777.205	31.72
777.382	31.75
777.56	29
777.737	29.68
777.914	30.94
778.091	33.17
778.268	33.04
778.445	32.29
778.622	33.83
778.8	33.83
778.977	33.78
779.154	34.34
779.331	36.13
779.508	38.01
779.685	39.14
779.862	37.56
780.038	36.13
780.215	34.37
780.392	33.12
780.569	34
780.746	35.01
780.923	35.74
781.1	36.66
781.277	35.35
781.453	34.96
781.63	35.15
781.807	35.74
781.984	35.79
782.16	36.12
782.337	38.72
782.514	36.6
782.691	37.12
782.867	37.03
783.044	36.06
783.221	35.77
783.397	37.34
783.574	38.64
783.75	38.96
783.927	40.36
784.103	40.07
784.28	38.49
784.456	39.99
784.633	36.94
784.809	38.51
784.986	40.26
785.162	41.29
785.339	39.28
785.515	38.8
785.692	36.51
785.868	36.01
786.044	35.48
786.221	37.89
786.397	38.75
786.573	39.66
786.749	35.46
786.926	34.21
787.102	31.48
787.278	29.83
787.454	24.78
787.631	25.66
787.807	24.65
787.983	23.98
788.159	20.25
788.335	22.16
788.511	22.79
788.687	24.45
788.863	26.02
789.039	27.52
789.216	29.35
789.392	31.73
789.568	34.7
789.744	35.38
789.919	35.01
790.095	36.13
790.271	31.73
790.447	30.01
790.623	31.58
790.799	28.09
790.975	26.7
791.151	26.9
791.327	26.15
791.502	24.6
791.678	22.87
791.854	28.58
792.03	30
792.205	34.44
792.381	38.66
792.557	38.77
792.733	39.8
792.908	39.39
793.084	40.94
793.259	41.33
793.435	40.82
793.611	40.31
793.786	39.15
793.962	40.72
794.137	39.44
794.313	36.78
794.488	34.35
794.664	33.71
794.839	34.92
795.015	32.77
795.19	32.45
795.366	32.09
795.541	31.24
795.716	28.66
795.892	24.51
796.067	22.42
796.242	21.13
796.418	21.28
796.593	22.94
796.768	23.97
796.944	24.02
797.119	23.29
797.294	23.09
797.469	24.21
797.644	23.51
797.82	26.91
797.995	27.48
798.17	29.43
798.345	30.2
798.52	29.11
798.695	29.77
798.87	28.85
799.045	30.86
799.22	34.06
799.395	34.01
799.57	35.96
799.745	35.06
799.92	37.26
800.095	37.39
800.27	34.77
800.445	38.84
800.62	35.14
800.795	34.27
800.97	33.43
801.145	33.99
801.319	33.38
801.494	31.63
801.669	32.98
801.844	29.82
802.018	28.51
802.193	33.25
802.368	28.04
802.543	31.18
802.717	32.14
802.892	32.61
803.067	33.08
803.241	34.53
803.416	35.93
803.59	31.35
803.765	31.43
803.94	33.71
804.114	32.6
804.289	32.96
804.463	32.51
804.638	33.07
804.812	33.39
804.986	28.08
805.161	24.93
805.335	24.68
805.51	30.39
805.684	28.79
805.858	29.42
806.033	27.04
806.207	31.05
806.381	33.01
806.556	30.34
806.73	29.71
806.904	29.81
807.078	30.21
807.253	33.31
807.427	32.06
807.601	36.82
807.775	34.08
807.949	32.91
808.123	27.95
808.298	28.28
808.472	31.75
808.646	30.69
808.82	30.8
808.994	33.15
809.168	29.35
809.342	26.4
809.516	23.04
809.69	24.7
809.864	25.98
810.038	26.32
810.212	22.51
810.385	22.37
810.559	20.31
810.733	19.87
810.907	19.02
811.081	18.09
811.255	20.37
811.428	21.39
811.602	21.69
811.776	22.69
811.95	25.57
812.123	29.64
812.297	29.96
812.471	30.85
812.644	34.05
812.818	36.64
812.992	36.41
813.165	38.65
813.339	40.68
813.512	39.38
813.686	38.12
813.86	36.37
814.033	31.66
814.207	31.18
814.38	32.15
814.554	31.45
814.727	30.84
814.9	35.13
815.074	34.92
815.247	34.64
815.421	33.32
815.594	39.6
815.767	40.47
815.941	43.91
816.114	39.87
816.287	40.31
816.46	39.63
816.634	35.25
816.807	33.66
816.98	29.3
817.153	27.75
817.327	29.51
817.5	27.52
817.673	26.84
817.846	27.13
818.019	26.18
818.192	27.33
818.365	23.1
818.538	23.31
818.711	24.36
818.884	25.46
819.057	22.53
819.23	20.54
819.403	20.38
819.576	22.34
819.749	24.65
819.922	26.78
820.095	26.72
820.268	30.12
820.441	30.51
820.614	30.15
820.786	30.23
820.959	33.18
821.132	34.35
821.305	31.97
821.477	32.18
821.65	30.32
821.823	30.19
821.996	28.66
822.168	28.61
822.341	29.51
822.514	30.54
822.686	30.51
822.859	30.23
823.031	29.59
823.204	30.37
823.376	29.9
823.549	30.1
823.722	30.52
823.894	31.26
824.067	31.47
824.239	30.79
824.411	30.22
824.584	29.98
824.756	29.9
824.929	29.67
825.101	29.81
825.273	30.31
825.446	31.06
825.618	31.24
825.79	31.04
825.963	30.93
826.135	32.43
826.307	32.11
826.479	33.37
826.652	33.35
826.824	34.76
826.996	33.31
827.168	33.54
827.34	31.69
827.512	31.48
827.684	31.41
827.856	32.08
828.029	32.1
828.201	30.43
828.373	29.35
828.545	29.89
828.717	28.48
828.889	28.83
829.061	27.59
829.232	26.17
829.404	25.17
829.576	25.99
829.748	26.09
829.92	23.44
830.092	27.08
830.264	28.44
830.436	28.92
830.607	31.15
830.779	29.42
830.951	31.05
831.123	35.85
831.294	36.4
831.466	35.12
831.638	32.38
831.809	34.85
831.981	30.21
832.153	28.17
832.324	24.34
832.496	21.32
832.667	26.32
832.839	23.11
833.011	23.24
833.182	26.59
833.354	27.16
833.525	26.96
833.697	25.52
833.868	26.87
834.039	26.58
834.211	25.31
834.382	25.55
834.554	25.33
834.725	28.26
834.896	28.91
835.068	27.6
835.239	27.9
835.41	28.17
835.581	29.27
835.753	29.08
835.924	27.61
836.095	28.5
836.266	29.69
836.438	29.22
836.609	28.41
836.78	24.89
836.951	25.06
837.122	23.07
837.293	22.51
837.464	17.21
837.635	17.47
837.806	21
837.977	21.81
838.148	21.21
838.319	18.84
838.49	19.6
838.661	23.94
838.832	21.15
839.003	20.01
839.174	21.93
839.345	23.08
839.516	20.07
839.687	18.5
839.857	17.4
840.028	12.67
840.199	16.27
840.37	12.13
840.54	9.02
840.711	11.85
840.882	14.04
841.053	10.95
841.223	19.36
841.394	18.98
841.564	17.34
841.735	21.31
841.906	24.29
842.076	20.1
842.247	21.97
842.417	19.04
842.588	21.19
842.758	18.62
842.929	29.03
843.099	25.79
843.27	31.17
843.44	39.32
843.611	35
843.781	35.95
843.951	36.5
844.122	36.9
844.292	35.62
844.462	38.4
844.633	40.31
844.803	30.31
844.973	30.76
845.144	36.22
845.314	22.49
845.484	23.52
845.654	23.7
845.824	25.85
845.995	16.41
846.165	28.76
846.335	20.15
846.505	23.54
846.675	30.08
846.845	26.84
847.015	21.12
847.185	16.67
847.355	17.91
847.525	13.13
847.695	15.8
847.865	21.19
848.035	11.6
848.205	9.22
848.375	15.42
848.545	13.41
848.715	16.42
848.884	9.31
849.054	16.29
849.224	13.3
849.394	25.38
849.564	34.5
849.733	21.62
849.903	30.05
850.073	15.06
850.243	18.45
850.412	14.5
850.582	-0.33
850.752	-1.16
850.921	-3.34
851.091	11.62
851.26	-1.1
851.43	4.34
851.599	-0.09
851.769	2.98
851.939	29.89
852.108	21.95
852.278	12.42
852.447	12.74
852.616	0.12
852.786	8.99
852.955	5.09
853.125	15.35
853.294	-0.53
853.463	2.29
853.633	-3.45
853.802	7.49
853.971	13.27
854.141	35.24
854.31	48.42
854.479	66.13
854.648	64.53
854.818	64.13
854.987	79.93
855.156	81.67
855.325	80.15
855.494	76.1
855.663	65.62
855.832	50.02
856.001	38.03
856.171	32.73
856.34	25.99
856.509	17.55
856.678	39.75
856.847	32.27
857.016	38.15
857.185	45.11
857.353	47.81
857.522	44.11
857.691	47.5
857.86	48.08
858.029	48.72
858.198	63.63
858.367	64.16
858.535	43.38
858.704	40.11
858.873	17.59
859.042	-17.95
859.21	-21.82
859.379	-64.58
859.548	0.82
859.717	18.78
859.885	11.8
860.054	4.74
860.222	6.74
860.391	18.55
860.56	37.77
860.728	44.37
860.897	48.59
861.065	43.84
861.234	42.87
861.402	46
861.571	44.28
861.739	53.47
861.908	53.46
862.076	48.75
862.244	47.05
862.413	34.11
862.581	34.92
862.749	44.2
862.918	45.8
863.086	42.72
863.254	29.9
863.423	25.91
863.591	14.55
863.759	20.45
863.927	19.03
864.096	22.95
864.264	36.01
864.432	19.46
864.6	-1.54
864.768	3
864.936	16
865.104	21.84
865.272	20.98
865.44	33.27
865.608	25.34
865.776	22.51
865.944	20.88
866.112	10.04
866.28	28.39
866.448	26.94
866.616	29.87
866.784	12.43
866.952	23.08
867.12	7.35
867.288	-5.77
867.455	-12.18
867.623	-9.6
867.791	-8.06
867.959	-22.65
868.127	-15.43
868.294	-2.56
868.462	-6.13
868.63	28.38
868.797	16.63
868.965	34.61
869.133	21.47
869.3	10.5
869.468	21.19
869.636	3.76
869.803	32.2
869.971	7.74
870.138	4.68
870.306	6.07
870.473	-4.16
870.641	13.51
870.808	23.71
870.975	46.8
871.143	38.37
871.31	29.48
871.478	35.12
871.645	21.49
871.812	26.92
871.98	18.97
872.147	21.2
872.314	9.91
872.482	-2.06
872.649	3.91
872.816	3.04
872.983	19.85
873.15	20.78
873.318	17.42
873.485	36.32
873.652	49.97
873.819	49.62
873.986	39.67
874.153	51.6
874.32	52.19
874.487	49.53
874.654	39.3
874.821	48.12
874.988	37.61
875.155	43.8
875.322	26.49
875.489	33.33
875.656	40.18
875.823	43.64
875.99	33.2
876.157	25.3
876.324	12.69
876.49	21.36
876.657	9.91
876.824	-0.57
876.991	-13.89
877.157	-5.89
877.324	-3.63
877.491	-26.45
877.658	-25.72
877.824	-22.99
877.991	-24.39
878.157	12.56
878.324	9.84
878.491	22.57
878.657	37.95
878.824	44.56
878.99	54.61
879.157	41.88
879.323	57.33
879.49	55.56
879.656	48.22
879.823	46.88
879.989	45.75
880.156	44.49
880.322	55.38
880.488	62.79
880.655	56.54
880.821	62.39
880.987	62.05
881.154	57.6
881.32	51.99
881.486	51.13
881.652	49.96
881.819	51.65
881.985	48.75
882.151	40.73
882.317	40.07
882.483	39.52
882.649	35.69
882.816	35.94
882.982	34.71
883.148	34.18
883.314	36.05
883.48	36.84
883.646	33.34
883.812	34.54
883.978	40.25
884.144	39.37
884.31	38.02
884.476	40.88
884.642	36
884.807	34.84
884.973	35.69
885.139	33.51
885.305	32.16
885.471	33.08
885.637	31.99
885.802	27.72
885.968	27.05
886.134	26.13
886.3	23.75
886.465	23.85
886.631	28.86
886.797	25.54
886.962	24.21
887.128	29.23
887.293	23.64
887.459	25.81
887.625	30.59
887.79	37.49
887.956	43.17
888.121	43.71
888.287	55.02
888.452	48.21
888.618	56.85
888.783	66.12
