Data from CB_066_Reflection_3.txt Node
Date: Sat Nov 14 10:45:22 EST 2015
User: robert
Spectrometer: USB4E03001
Autoset integration time: false
Trigger mode: 4
Integration Time (sec): 1.000000E-1
Scans to average: 15
Electric dark correction enabled: true
Nonlinearity correction enabled: false
Boxcar width: 5
Stray light correction enabled: false
XAxis mode: Wavelengths
Stop averaging: false
Number of Pixels in Spectrum: 3648
>>>>>Begin Spectral Data<<<<<
177.566	-56.06
177.785	-81.49
178.005	-448.84
178.225	39.07
178.445	119.87
178.665	-102.51
178.885	-45.61
179.105	-43.35
179.324	-100.73
179.544	-241.65
179.764	-20.72
179.984	-50.08
180.204	-70.73
180.423	-215.05
180.643	-72.3
180.863	-44.79
181.083	-558.22
181.302	-4861.11
181.522	461.49
181.742	380.23
181.961	436.08
182.181	73.71
182.401	86.46
182.621	166.57
182.84	776.19
183.06	-1895.59
183.279	-282.22
183.499	-182.17
183.719	-211.64
183.938	-154.31
184.158	-137.98
184.377	-79.3
184.597	-47.03
184.816	-8.22
185.036	9.54
185.256	-40.35
185.475	-37.09
185.695	58.22
185.914	21.04
186.134	55.7
186.353	26.46
186.572	31.56
186.792	-56.27
187.011	547.06
187.231	-372.08
187.45	-94.6
187.67	-136.43
187.889	425.51
188.108	268.5
188.328	206.64
188.547	122.03
188.766	103.47
188.986	79.43
189.205	99.98
189.424	94.62
189.644	93.17
189.863	117.79
190.082	134.98
190.302	169.54
190.521	147.35
190.74	144.06
190.959	462.08
191.178	363.1
191.398	371.15
191.617	833.82
191.836	2978.49
192.055	538.31
192.274	192.8
192.494	240.96
192.713	5969.64
192.932	-785.99
193.151	178475
193.37	372.61
193.589	-9826.55
193.808	-776.85
194.027	-1116.55
194.246	2638.82
194.465	-1703.17
194.685	312.4
194.904	353.38
195.123	211.18
195.342	122.89
195.561	95.78
195.78	181.78
195.999	47.52
196.218	-71.32
196.436	-127.56
196.655	-6.06
196.874	-13
197.093	29.84
197.312	16.31
197.531	27.2
197.75	-45.19
197.969	-284.54
198.188	-35.48
198.407	-11.47
198.625	35.4
198.844	64.56
199.063	59.53
199.282	144.84
199.501	476.56
199.719	307.16
199.938	113.94
200.157	207.48
200.376	-708.98
200.594	27.19
200.813	-55.97
201.032	123.51
201.251	138.42
201.469	146.9
201.688	46.79
201.907	1073.71
202.125	335.35
202.344	842.25
202.563	5089.86
202.781	412.39
203	133.56
203.218	125.45
203.437	159.08
203.656	118.71
203.874	175.9
204.093	116.52
204.311	18.46
204.53	117.69
204.748	52.94
204.967	-17.86
205.185	-51.27
205.404	32.34
205.622	24.56
205.841	113.56
206.059	143.34
206.278	164.24
206.496	228.96
206.715	275.99
206.933	164.03
207.151	256.31
207.37	175.64
207.588	221.75
207.806	256.5
208.025	342.78
208.243	512.85
208.461	-28254.55
208.68	511.35
208.898	325.49
209.116	243.94
209.335	162.58
209.553	73.82
209.771	67.13
209.989	77.74
210.208	66.66
210.426	34.83
210.644	38.02
210.862	30.96
211.081	36.17
211.299	23.75
211.517	10.77
211.735	25.44
211.953	37.36
212.171	35.11
212.39	6.46
212.608	14.48
212.826	32.29
213.044	38.32
213.262	33.43
213.48	32.3
213.698	29.5
213.916	26.33
214.134	-30.19
214.352	-43.36
214.57	-39.69
214.788	-51.65
215.006	-20.43
215.224	-115.15
215.442	-422.79
215.66	-637.53
215.878	-139.7
216.096	-48.65
216.314	-177.46
216.532	-286.55
216.75	441.91
216.968	213.38
217.185	-1900
217.403	488.85
217.621	-33966.67
217.839	-95.9
218.057	-464.58
218.275	127.51
218.492	37.7
218.71	-537.27
218.928	463.64
219.146	220.48
219.363	84.07
219.581	55.05
219.799	181.62
220.017	34.25
220.234	23.22
220.452	76.51
220.67	78.11
220.887	47.46
221.105	76.26
221.323	65.52
221.54	73.73
221.758	68.26
221.976	54.31
222.193	36.39
222.411	43.37
222.629	45.26
222.846	32.55
223.064	27.89
223.281	35.89
223.499	17.51
223.716	18.71
223.934	24.84
224.151	25.48
224.369	37.67
224.586	60.96
224.804	55.67
225.021	57.03
225.239	68
225.456	76.69
225.674	73.11
225.891	70.68
226.108	57.49
226.326	45.55
226.543	47.07
226.76	30.94
226.978	19.18
227.195	29.14
227.413	30.55
227.63	28.88
227.847	29.11
228.064	23.99
228.282	24.53
228.499	20.87
228.716	23.37
228.934	20.93
229.151	16.94
229.368	16.8
229.585	13.74
229.802	9.95
230.02	11.04
230.237	13.16
230.454	15.13
230.671	15.17
230.888	20.26
231.105	16.67
231.323	21.26
231.54	24.91
231.757	24.33
231.974	21.29
232.191	26.8
232.408	20.51
232.625	13.11
232.842	6.4
233.059	-0.82
233.276	-3.76
233.493	-3.39
233.71	-6.63
233.927	-4.3
234.144	-4.99
234.361	1.92
234.578	-0.81
234.795	-3.12
235.012	1.17
235.229	1.92
235.446	8.32
235.663	6.54
235.879	6.75
236.096	13.74
236.313	15.26
236.53	12.66
236.747	15.28
236.964	12.51
237.181	19.89
237.397	16.36
237.614	27.45
237.831	29.1
238.048	32.19
238.264	31.11
238.481	24.66
238.698	24.67
238.915	29.06
239.131	22.62
239.348	19.75
239.565	18.52
239.781	18.39
239.998	14.5
240.215	10.62
240.431	7.77
240.648	10.23
240.865	5.72
241.081	7.23
241.298	3.66
241.514	8.52
241.731	8.67
241.947	5.66
242.164	6.33
242.38	2.86
242.597	2.65
242.814	4.15
243.03	5.99
243.246	7.85
243.463	7.22
243.679	8.6
243.896	5.28
244.112	4.4
244.329	6.7
244.545	8.52
244.762	9.69
244.978	9.75
245.194	7.16
245.411	4.98
245.627	5.27
245.843	7.24
246.06	7.44
246.276	8.04
246.492	10.32
246.709	9.72
246.925	8.1
247.141	8.95
247.357	10.09
247.574	10.47
247.79	9.74
248.006	9.35
248.222	8.03
248.439	7.72
248.655	7.78
248.871	6.28
249.087	7.52
249.303	8.71
249.519	8.38
249.736	7.52
249.952	7.05
250.168	10.1
250.384	11.63
250.6	12.86
250.816	13.34
251.032	12.23
251.248	14.27
251.464	12.59
251.68	9.21
251.896	7.88
252.112	8.3
252.328	8.51
252.544	7.51
252.76	6.78
252.976	5.26
253.192	4.65
253.408	5.88
253.624	3.25
253.84	2.37
254.056	2.39
254.272	2.32
254.487	-0.59
254.703	-2.6
254.919	-5.73
255.135	-6.64
255.351	-0.98
255.567	0.99
255.782	2.61
255.998	4.89
256.214	4.98
256.43	4.88
256.646	6.21
256.861	8.62
257.077	8.03
257.293	8.1
257.508	9.98
257.724	8.76
257.94	7.32
258.155	5.29
258.371	4.98
258.587	4.77
258.802	6.45
259.018	6.56
259.234	5.7
259.449	6
259.665	5.89
259.88	5.88
260.096	5.53
260.312	5.3
260.527	4.8
260.743	5.42
260.958	5.82
261.174	6.42
261.389	7
261.605	6.78
261.82	6.97
262.036	7.71
262.251	6.94
262.466	6.43
262.682	6.97
262.897	7.6
263.113	6.97
263.328	3.9
263.543	2.18
263.759	1.28
263.974	2.49
264.189	3.16
264.405	1.93
264.62	3.17
264.835	1.33
265.051	2.77
265.266	3.54
265.481	5.3
265.696	9.74
265.912	8.43
266.127	6.76
266.342	5.53
266.557	6.37
266.773	6.99
266.988	6.91
267.203	8.08
267.418	6.4
267.633	7.53
267.848	5.96
268.064	3.56
268.279	3.89
268.494	3.3
268.709	2.25
268.924	2.39
269.139	0.25
269.354	0.68
269.569	-0.14
269.784	1.05
269.999	0.9
270.214	2.1
270.429	3.29
270.644	5.17
270.859	4.97
271.074	5.53
271.289	7.19
271.504	8.31
271.719	7.35
271.934	8.29
272.149	7.63
272.363	7.18
272.578	5.29
272.793	5.17
273.008	3.21
273.223	4.1
273.438	4.66
273.653	4.14
273.867	3.58
274.082	4.96
274.297	4.89
274.512	6.84
274.726	6.31
274.941	7.34
275.156	8.9
275.371	9.45
275.585	9.78
275.8	10.84
276.015	8.44
276.229	9.96
276.444	10
276.659	9.21
276.873	6.54
277.088	7.58
277.302	9.33
277.517	7.52
277.732	7.88
277.946	8.2
278.161	8.01
278.375	9.54
278.59	8.32
278.804	7.78
279.019	9.6
279.233	9.77
279.448	7.89
279.662	5.93
279.877	6.76
280.091	4.76
280.306	3.4
280.52	1.81
280.735	-0.63
280.949	1.33
281.163	0.57
281.378	-1.66
281.592	-1
281.806	-0.34
282.021	-0.62
282.235	-1.26
282.449	0.66
282.664	1.32
282.878	2.06
283.092	1.53
283.307	0.64
283.521	0.7
283.735	1.79
283.949	3.24
284.164	3.59
284.378	4.23
284.592	4.14
284.806	4.08
285.02	3.38
285.234	2.74
285.449	3.92
285.663	4.96
285.877	4
286.091	2.99
286.305	1.13
286.519	1.57
286.733	2.3
286.947	2.51
287.161	2.44
287.375	2.7
287.589	5.64
287.803	6.71
288.017	5.49
288.231	7.36
288.445	8.18
288.659	9.3
288.873	9.17
289.087	8.46
289.301	8.75
289.515	8.86
289.729	8.32
289.943	6.54
290.157	6.98
290.371	7.24
290.584	7.01
290.798	7.3
291.012	7.4
291.226	7.1
291.44	7.81
291.654	7.93
291.867	7.46
292.081	9
292.295	10.06
292.509	9.3
292.722	8.64
292.936	7.64
293.15	7.76
293.364	6.23
293.577	6.59
293.791	6.95
294.005	7.65
294.218	9.2
294.432	8.71
294.645	7.01
294.859	6.74
295.073	7.87
295.286	7.74
295.5	7.4
295.713	8.23
295.927	8.44
296.14	7.77
296.354	6.97
296.568	5.42
296.781	5.72
296.994	6.24
297.208	5.64
297.421	5.46
297.635	6.33
297.848	5.85
298.062	5.4
298.275	5.35
298.489	5.26
298.702	5.43
298.915	5.25
299.129	4.89
299.342	4.4
299.555	5.25
299.769	4.84
299.982	4.07
300.195	5.22
300.409	4.93
300.622	4.29
300.835	3.42
301.048	3.45
301.262	4.77
301.475	6.58
301.688	6.6
301.901	6.55
302.115	6.35
302.328	6.58
302.541	6.98
302.754	8.45
302.967	8.85
303.18	10.5
303.393	9.8
303.607	10.04
303.82	9.2
304.033	9.39
304.246	10.04
304.459	10.03
304.672	10.2
304.885	9.85
305.098	9.58
305.311	9.75
305.524	8.28
305.737	9.79
305.95	9.66
306.163	9.3
306.376	9.05
306.589	8.34
306.802	8.98
307.015	9.78
307.228	10.47
307.44	10.59
307.653	9.86
307.866	11.37
308.079	11.15
308.292	10.95
308.505	12.14
308.718	12.84
308.93	13
309.143	12.27
309.356	12.76
309.569	11.81
309.781	11.74
309.994	12.9
310.207	12.39
310.42	11.93
310.632	12.42
310.845	11.26
311.058	11.19
311.27	10.62
311.483	10.28
311.696	9.15
311.908	8.98
312.121	9
312.333	9.42
312.546	9.41
312.759	9.4
312.971	8.62
313.184	9.47
313.396	9.71
313.609	10.02
313.821	11.2
314.034	10.96
314.246	10.96
314.459	10.98
314.671	9.94
314.884	10.53
315.096	9.99
315.309	9.96
315.521	10.05
315.733	9.22
315.946	8.69
316.158	8.66
316.371	9.33
316.583	10.46
316.795	10.17
317.008	11.86
317.22	10.47
317.432	11.23
317.644	11.7
317.857	10.6
318.069	10.4
318.281	11.71
318.494	11.05
318.706	11.52
318.918	11.47
319.13	11.96
319.342	8.14
319.555	8.03
319.767	9.16
319.979	8.92
320.191	8.22
320.403	7.98
320.615	8.58
320.827	8.77
321.039	8.51
321.252	9.13
321.464	9.89
321.676	12.42
321.888	14.04
322.1	12.42
322.312	11.54
322.524	12.33
322.736	11.87
322.948	10.89
323.16	10.02
323.372	9.6
323.584	8.53
323.796	7.52
324.007	6.48
324.219	6.22
324.431	7.16
324.643	9.54
324.855	10.6
325.067	11.33
325.279	12.07
325.491	14.07
325.702	15.27
325.914	15.76
326.126	15.98
326.338	15.32
326.55	15.77
326.761	16.12
326.973	15.77
327.185	15.1
327.396	16.06
327.608	16.02
327.82	15.03
328.032	15.05
328.243	14.78
328.455	16.4
328.666	18.68
328.878	18.28
329.09	19.39
329.301	19.09
329.513	19.48
329.725	19.4
329.936	19.52
330.148	20.68
330.359	22.08
330.571	23.35
330.782	23.45
330.994	23.68
331.205	26.06
331.417	25.9
331.628	26.1
331.84	27.36
332.051	28.43
332.262	28.94
332.474	29.24
332.685	28.19
332.897	27.97
333.108	27.93
333.319	27.23
333.531	26.12
333.742	25.04
333.953	25.1
334.165	24.48
334.376	25.08
334.587	25.08
334.799	23.77
335.01	23.64
335.221	23.77
335.432	22.87
335.644	23.8
335.855	24.06
336.066	24.99
336.277	25.47
336.488	26.35
336.7	25.85
336.911	26.14
337.122	27.63
337.333	28.15
337.544	28.26
337.755	29.07
337.966	28.54
338.177	27.99
338.388	26.95
338.599	27.28
338.811	25.5
339.022	24.86
339.233	24.42
339.444	23.16
339.655	22.74
339.866	22.09
340.076	21.66
340.287	21.95
340.498	22.75
340.709	23.66
340.92	23.36
341.131	24.29
341.342	25.75
341.553	24.95
341.764	26.67
341.975	27.53
342.185	28.87
342.396	28.82
342.607	28.57
342.818	28.22
343.029	28.05
343.239	27.61
343.45	27.46
343.661	27.22
343.872	27.83
344.082	26.41
344.293	25.98
344.504	25.02
344.714	25.46
344.925	25.8
345.136	25.21
345.346	24.69
345.557	24.86
345.768	24.64
345.978	24.48
346.189	24.62
346.399	24.15
346.61	24.05
346.821	24.54
347.031	24.53
347.242	24.36
347.452	24.47
347.663	25.75
347.873	26.21
348.084	26.37
348.294	25.72
348.504	25.93
348.715	27.15
348.925	26.71
349.136	25.6
349.346	25.74
349.557	25.88
349.767	26.23
349.977	25.45
350.188	24.64
350.398	25.33
350.608	25.1
350.819	25.25
351.029	24.23
351.239	25.35
351.449	25.8
351.66	25.25
351.87	25.1
352.08	25.75
352.29	25.98
352.501	25.82
352.711	24.36
352.921	24.47
353.131	23.71
353.341	25.09
353.552	23.45
353.762	23.11
353.972	22.52
354.182	23.73
354.392	23.41
354.602	23.02
354.812	23.48
355.022	23.72
355.232	23.37
355.442	23.92
355.652	22.92
355.862	23.16
356.072	23.96
356.282	24.08
356.492	22.73
356.702	22.69
356.912	22.45
357.122	23.15
357.332	23.79
357.542	23.6
357.752	23.24
357.962	23.81
358.171	24.03
358.381	23.44
358.591	23.72
358.801	23.42
359.011	23.23
359.221	23.6
359.43	22.87
359.64	22.39
359.85	22.4
360.06	22.56
360.269	22.18
360.479	22.29
360.689	22.57
360.899	22.87
361.108	23.73
361.318	23.17
361.528	23.03
361.737	23.21
361.947	23.89
362.156	24.48
362.366	24.5
362.576	24.46
362.785	24.24
362.995	24.33
363.204	23.73
363.414	23.07
363.623	23.47
363.833	23.6
364.042	23.73
364.252	23.58
364.461	22.84
364.671	23.3
364.88	23.18
365.09	23.82
365.299	23.61
365.509	24.2
365.718	23.65
365.927	23.75
366.137	23.92
366.346	23.47
366.555	22.64
366.765	23.24
366.974	22.91
367.183	23.16
367.393	22.71
367.602	22.7
367.811	22.88
368.021	23.61
368.23	23.72
368.439	23.31
368.648	22.94
368.857	23.11
369.067	22.83
369.276	22.66
369.485	22.78
369.694	22.79
369.903	22.55
370.112	22.28
370.321	22.01
370.531	21.83
370.74	21.74
370.949	22.14
371.158	22.26
371.367	22.45
371.576	21.78
371.785	21.01
371.994	21.48
372.203	21.59
372.412	21.6
372.621	21.79
372.83	21.18
373.039	21.3
373.248	21.39
373.457	21.53
373.666	20.81
373.874	21.16
374.083	21.27
374.292	20.63
374.501	20.66
374.71	20.27
374.919	20.11
375.128	20.23
375.336	20.69
375.545	20.08
375.754	19.67
375.963	19.71
376.171	19.26
376.38	19.16
376.589	18.64
376.798	17.75
377.006	18.09
377.215	17.86
377.424	18.09
377.632	17.35
377.841	18.24
378.05	18.12
378.258	18.62
378.467	18.56
378.675	18.94
378.884	19.38
379.093	19.85
379.301	19.57
379.51	19.94
379.718	20.11
379.927	20.47
380.135	20.01
380.344	19.68
380.552	19.56
380.761	20.05
380.969	19.61
381.177	19.14
381.386	19.75
381.594	19.92
381.803	19.44
382.011	19.37
382.219	19.1
382.428	18.63
382.636	19.43
382.845	18.76
383.053	18.56
383.261	18.54
383.469	18.94
383.678	18.1
383.886	17.97
384.094	18.21
384.302	17.99
384.511	18.13
384.719	18.22
384.927	17.9
385.135	18.15
385.343	18.04
385.552	18.37
385.76	17.89
385.968	17.92
386.176	17.67
386.384	17.26
386.592	17.1
386.8	16.89
387.008	17.52
387.216	17.63
387.424	17.36
387.633	17.34
387.841	17.21
388.049	17.63
388.257	17.86
388.465	17.7
388.672	18.22
388.88	18.49
389.088	18.32
389.296	17.86
389.504	17.54
389.712	17.83
389.92	17.49
390.128	17.44
390.336	16.82
390.544	16.49
390.751	16.79
390.959	16.26
391.167	16.18
391.375	16.67
391.583	16.43
391.79	16.44
391.998	16.6
392.206	16.85
392.414	16.5
392.621	16.65
392.829	16.7
393.037	16.54
393.244	16.66
393.452	16.57
393.66	16.2
393.867	16.23
394.075	16.35
394.283	16.21
394.49	16.13
394.698	16.38
394.905	16.53
395.113	16.94
395.32	16.72
395.528	16.99
395.735	16.66
395.943	16.79
396.15	17
396.358	16.61
396.565	16.79
396.773	16.65
396.98	16.87
397.188	16.99
397.395	16.75
397.602	16.99
397.81	16.54
398.017	17.01
398.225	17.24
398.432	16.84
398.639	17.07
398.847	16.72
399.054	17.04
399.261	16.71
399.468	16.7
399.676	16.76
399.883	16.55
400.09	16.78
400.297	16.53
400.505	16.19
400.712	16.4
400.919	16.43
401.126	16.67
401.333	16.56
401.54	16.56
401.748	16.63
401.955	16.49
402.162	16.73
402.369	16.81
402.576	16.87
402.783	16.67
402.99	16.52
403.197	16.29
403.404	16.06
403.611	16.2
403.818	16.35
404.025	16.31
404.232	16.44
404.439	16.47
404.646	16.47
404.853	16.31
405.06	15.99
405.267	16.19
405.474	16.21
405.681	16.42
405.887	16.31
406.094	16.32
406.301	15.89
406.508	15.95
406.715	16
406.922	15.91
407.128	16.24
407.335	16.51
407.542	16.53
407.749	16.74
407.955	16.44
408.162	16.21
408.369	16.02
408.575	16.47
408.782	16.24
408.989	15.81
409.195	15.66
409.402	15.42
409.609	15.43
409.815	15.29
410.022	15.25
410.228	15.29
410.435	15.63
410.642	15.85
410.848	15.63
411.055	15.9
411.261	16.13
411.468	16.21
411.674	16.22
411.881	16.25
412.087	16.14
412.294	16.04
412.5	16.03
412.706	15.97
412.913	15.6
413.119	15.55
413.326	15.21
413.532	15.06
413.738	15.1
413.945	14.8
414.151	15.11
414.357	15.07
414.564	15.16
414.77	15.3
414.976	15.02
415.182	15.31
415.389	15.18
415.595	14.91
415.801	15.06
416.007	15.12
416.214	15.04
416.42	14.83
416.626	14.83
416.832	14.79
417.038	14.71
417.244	14.66
417.45	14.65
417.657	14.74
417.863	14.77
418.069	14.86
418.275	14.86
418.481	15.03
418.687	15
418.893	15.04
419.099	14.94
419.305	14.77
419.511	14.82
419.717	14.63
419.923	14.63
420.129	14.67
420.335	14.63
420.541	14.5
420.746	14.47
420.952	14.4
421.158	14.42
421.364	14.4
421.57	14.31
421.776	14.3
421.982	14.57
422.187	14.44
422.393	14.54
422.599	14.45
422.805	14.48
423.01	14.45
423.216	14.49
423.422	14.62
423.628	14.66
423.833	14.72
424.039	14.72
424.245	14.54
424.45	14.68
424.656	14.54
424.862	14.55
425.067	14.51
425.273	14.6
425.478	14.48
425.684	14.26
425.889	14.35
426.095	14.41
426.301	14.41
426.506	14.35
426.712	14.41
426.917	14.61
427.123	14.5
427.328	14.5
427.533	14.37
427.739	14.52
427.944	14.73
428.15	14.64
428.355	14.73
428.561	14.67
428.766	14.53
428.971	14.35
429.177	14.1
429.382	13.83
429.587	13.86
429.793	13.92
429.998	13.79
430.203	13.41
430.408	13.46
430.614	13.38
430.819	13.42
431.024	13.31
431.229	13.47
431.434	13.64
431.64	13.82
431.845	13.87
432.05	14
432.255	14.05
432.46	14.25
432.665	14.11
432.87	14.06
433.076	13.94
433.281	14.17
433.486	13.97
433.691	13.75
433.896	13.81
434.101	13.58
434.306	13.52
434.511	13.51
434.716	13.41
434.921	13.57
435.126	13.71
435.331	13.76
435.535	13.67
435.74	13.55
435.945	13.6
436.15	13.47
436.355	13.69
436.56	13.56
436.765	13.62
436.97	13.63
437.174	13.47
437.379	13.42
437.584	13.45
437.789	13.51
437.993	13.62
438.198	13.78
438.403	13.93
438.608	13.83
438.812	13.78
439.017	13.66
439.222	13.77
439.426	13.76
439.631	13.63
439.836	13.64
440.04	13.63
440.245	13.71
440.45	13.63
440.654	13.59
440.859	13.62
441.063	13.66
441.268	13.64
441.472	13.5
441.677	13.46
441.881	13.52
442.086	13.55
442.29	13.41
442.495	13.46
442.699	13.36
442.904	13.3
443.108	13.25
443.312	13.24
443.517	13.29
443.721	13.33
443.925	13.36
444.13	13.26
444.334	13.11
444.538	13.21
444.743	13.13
444.947	13.22
445.151	13.34
445.356	13.35
445.56	13.38
445.764	13.32
445.968	13.34
446.173	13.32
446.377	13.34
446.581	13.35
446.785	13.28
446.989	13.27
447.193	13.22
447.398	13.29
447.602	13.16
447.806	13.17
448.01	13.28
448.214	13.31
448.418	13.2
448.622	13.31
448.826	13.44
449.03	13.57
449.234	13.62
449.438	13.8
449.642	13.53
449.846	13.77
450.05	13.76
450.254	13.81
450.458	13.6
450.662	13.88
450.866	13.57
451.069	13.54
451.273	13.48
451.477	13.57
451.681	13.34
451.885	13.34
452.089	13.37
452.292	13.19
452.496	12.95
452.7	13.1
452.904	13.1
453.107	13.24
453.311	13.05
453.515	13.12
453.719	12.9
453.922	12.96
454.126	12.87
454.33	12.73
454.533	12.72
454.737	12.93
454.94	12.87
455.144	12.96
455.348	13.01
455.551	13.24
455.755	13.14
455.958	13.32
456.162	13.32
456.365	13.46
456.569	13.4
456.772	13.49
456.976	13.53
457.179	13.5
457.383	13.24
457.586	13.13
457.79	13.11
457.993	13.22
458.196	13.19
458.4	13.22
458.603	13.19
458.807	13.01
459.01	13.13
459.213	13.13
459.417	13.18
459.62	13.13
459.823	13.25
460.026	13.15
460.23	13
460.433	12.89
460.636	12.82
460.839	12.85
461.042	12.91
461.246	12.95
461.449	12.85
461.652	12.75
461.855	12.81
462.058	12.78
462.261	12.74
462.464	12.67
462.668	12.84
462.871	13.12
463.074	13.05
463.277	13.09
463.48	12.83
463.683	12.89
463.886	12.84
464.089	12.79
464.292	12.72
464.495	12.91
464.698	13.1
464.901	12.89
465.104	12.55
465.306	12.37
465.509	12.56
465.712	12.95
465.915	12.87
466.118	12.77
466.321	12.75
466.524	12.58
466.726	12.64
466.929	12.67
467.132	12.62
467.335	12.92
467.538	13.05
467.74	12.98
467.943	12.71
468.146	12.66
468.348	12.84
468.551	12.97
468.754	13.18
468.956	13.11
469.159	12.88
469.362	13.21
469.564	13.11
469.767	13.25
469.969	13.32
470.172	13.36
470.375	13.57
470.577	13.73
470.78	13.56
470.982	13.49
471.185	13.49
471.387	13.67
471.59	13.31
471.792	13.32
471.995	13.41
472.197	13.38
472.399	13.35
472.602	13.24
472.804	13.03
473.007	13.24
473.209	13.39
473.411	13.43
473.614	13.58
473.816	13.82
474.018	13.68
474.22	13.7
474.423	13.72
474.625	13.78
474.827	13.9
475.03	14
475.232	13.92
475.434	13.72
475.636	13.66
475.838	13.56
476.04	13.47
476.243	13.6
476.445	13.55
476.647	13.6
476.849	13.6
477.051	13.46
477.253	13.58
477.455	13.57
477.657	13.6
477.859	13.65
478.061	13.56
478.263	13.62
478.465	13.66
478.667	13.49
478.869	13.38
479.071	13.26
479.273	13.13
479.475	13.03
479.677	13.03
479.879	13.14
480.081	13.17
480.283	13.26
480.485	13.18
480.686	13.34
480.888	13.54
481.09	13.61
481.292	13.57
481.494	13.8
481.695	13.76
481.897	13.8
482.099	13.72
482.301	13.53
482.502	13.42
482.704	13.53
482.906	13.39
483.107	13.29
483.309	13.16
483.511	13.12
483.712	13.07
483.914	13.01
484.115	12.96
484.317	12.95
484.519	12.96
484.72	12.96
484.922	12.88
485.123	12.83
485.325	12.88
485.526	12.95
485.728	12.95
485.929	12.94
486.131	12.96
486.332	12.95
486.534	12.96
486.735	13.08
486.936	13.09
487.138	13.11
487.339	13.11
487.541	13.04
487.742	13.12
487.943	13.16
488.144	13.15
488.346	13.21
488.547	13.26
488.748	13.25
488.95	13.17
489.151	13.25
489.352	13.29
489.553	13.33
489.755	13.41
489.956	13.26
490.157	13.27
490.358	13.25
490.559	13.17
490.76	13.13
490.961	13.06
491.163	13.08
491.364	13.03
491.565	13.03
491.766	13.05
491.967	13
492.168	13.06
492.369	12.97
492.57	13
492.771	13.07
492.972	13.09
493.173	13.19
493.374	13.3
493.575	13.37
493.776	13.29
493.976	13.28
494.177	13.35
494.378	13.29
494.579	13.53
494.78	13.62
494.981	13.57
495.182	13.68
495.382	13.71
495.583	13.59
495.784	13.56
495.985	13.85
496.185	13.8
496.386	13.83
496.587	13.97
496.788	13.95
496.988	13.83
497.189	13.92
497.39	13.82
497.59	13.73
497.791	13.71
497.992	13.7
498.192	13.51
498.393	13.61
498.593	13.74
498.794	13.75
498.994	13.8
499.195	13.9
499.395	13.93
499.596	13.98
499.796	14.1
499.997	14.28
500.197	14.26
500.398	14.46
500.598	14.39
500.799	14.47
500.999	14.35
501.199	14.4
501.4	14.44
501.6	14.52
501.801	14.5
502.001	14.68
502.201	14.55
502.402	14.57
502.602	14.3
502.802	14.43
503.002	14.3
503.203	14.5
503.403	14.37
503.603	14.35
503.803	14.29
504.003	14.45
504.204	14.31
504.404	14.46
504.604	14.68
504.804	15.01
505.004	14.99
505.204	14.87
505.404	14.68
505.604	14.83
505.804	14.84
506.005	14.9
506.205	14.81
506.405	14.84
506.605	14.8
506.805	14.76
507.005	14.64
507.204	14.62
507.404	14.65
507.604	15.01
507.804	15.08
508.004	15.19
508.204	15.22
508.404	15.35
508.604	15.42
508.804	15.63
509.003	15.66
509.203	15.71
509.403	15.82
509.603	15.99
509.803	15.98
510.002	16.05
510.202	16.13
510.402	16.33
510.602	16.25
510.801	16.25
511.001	16.13
511.201	16.15
511.4	16.16
511.6	16.32
511.8	16.44
511.999	16.47
512.199	16.44
512.398	16.51
512.598	16.47
512.797	16.75
512.997	16.82
513.197	16.96
513.396	17.17
513.596	17.22
513.795	17.27
513.994	17.3
514.194	17.4
514.393	17.43
514.593	17.59
514.792	17.71
514.992	17.83
515.191	17.93
515.39	17.85
515.59	17.76
515.789	17.89
515.988	17.89
516.188	17.9
516.387	17.91
516.586	18.12
516.786	18.13
516.985	18.16
517.184	18.11
517.383	18.34
517.582	18.48
517.782	18.5
517.981	18.66
518.18	18.68
518.379	18.92
518.578	18.92
518.777	18.95
518.976	18.98
519.176	19.08
519.375	19.09
519.574	19.13
519.773	19.19
519.972	19.43
520.171	19.64
520.37	19.73
520.569	19.74
520.768	19.86
520.967	19.95
521.166	20.13
521.365	20.19
521.564	20.44
521.762	20.59
521.961	20.71
522.16	20.66
522.359	20.56
522.558	20.7
522.757	20.72
522.956	20.84
523.154	20.99
523.353	21.02
523.552	21.08
523.751	21.16
523.949	21.18
524.148	21.19
524.347	21.39
524.546	21.53
524.744	21.6
524.943	21.63
525.142	21.67
525.34	21.76
525.539	21.82
525.737	21.86
525.936	21.94
526.135	22.03
526.333	22.16
526.532	22.24
526.73	22.28
526.929	22.46
527.127	22.56
527.326	22.68
527.524	22.72
527.723	22.78
527.921	22.86
528.12	22.83
528.318	22.85
528.516	22.91
528.715	22.91
528.913	22.91
529.112	22.97
529.31	23.01
529.508	23.06
529.707	23.07
529.905	23.18
530.103	23.23
530.301	23.36
530.5	23.52
530.698	23.56
530.896	23.67
531.094	23.91
531.293	24
531.491	24.2
531.689	24.32
531.887	24.53
532.085	24.6
532.283	24.66
532.481	24.74
532.68	24.72
532.878	24.83
533.076	24.94
533.274	24.85
533.472	24.83
533.67	24.8
533.868	24.86
534.066	24.88
534.264	24.93
534.462	25.06
534.66	25.07
534.858	25.19
535.056	25.32
535.253	25.4
535.451	25.45
535.649	25.56
535.847	25.75
536.045	25.8
536.243	25.89
536.441	26
536.638	26.08
536.836	26.21
537.034	26.29
537.232	26.37
537.43	26.38
537.627	26.52
537.825	26.74
538.023	26.77
538.22	27.04
538.418	27.13
538.616	27.29
538.813	27.34
539.011	27.52
539.209	27.52
539.406	27.49
539.604	27.66
539.801	27.83
539.999	27.72
540.196	27.73
540.394	27.68
540.591	27.67
540.789	27.62
540.986	27.63
541.184	27.6
541.381	27.69
541.579	27.69
541.776	27.69
541.974	27.68
542.171	27.72
542.368	27.74
542.566	27.67
542.763	27.72
542.96	27.79
543.158	27.99
543.355	28.06
543.552	28.12
543.75	28.24
543.947	28.36
544.144	28.55
544.341	28.69
544.539	28.89
544.736	29.15
544.933	29.24
545.13	29.28
545.327	29.29
545.524	29.3
545.722	29.43
545.919	29.5
546.116	29.54
546.313	29.4
546.51	29.43
546.707	29.38
546.904	29.29
547.101	29.34
547.298	29.5
547.495	29.51
547.692	29.68
547.889	29.64
548.086	29.74
548.283	29.88
548.48	30.12
548.677	30.22
548.874	30.29
549.07	30.51
549.267	30.58
549.464	30.67
549.661	30.74
549.858	30.87
550.055	31.11
550.251	31.07
550.448	30.93
550.645	30.9
550.842	31.01
551.038	31.02
551.235	31.11
551.432	31.37
551.628	31.4
551.825	31.36
552.022	31.23
552.218	31.07
552.415	31.23
552.612	31.33
552.808	31.34
553.005	31.33
553.201	31.42
553.398	31.54
553.594	31.54
553.791	31.5
553.987	31.63
554.184	31.78
554.38	31.81
554.577	31.96
554.773	32.11
554.97	32.17
555.166	32.21
555.362	32.32
555.559	32.3
555.755	32.29
555.952	32.5
556.148	32.56
556.344	32.54
556.541	32.46
556.737	32.24
556.933	32.24
557.129	32.35
557.326	32.4
557.522	32.45
557.718	32.61
557.914	32.71
558.11	32.45
558.307	32.39
558.503	32.44
558.699	32.8
558.895	32.96
559.091	33.02
559.287	33.26
559.483	33.38
559.679	33.37
559.876	33.11
560.072	32.99
560.268	33.2
560.464	33.27
560.66	33.14
560.856	33.2
561.052	33.29
561.247	33.27
561.443	33.06
561.639	33.06
561.835	33.31
562.031	33.42
562.227	33.45
562.423	33.44
562.619	33.55
562.815	33.89
563.01	34.02
563.206	33.95
563.402	33.93
563.598	34.08
563.793	34.24
563.989	34.19
564.185	34.19
564.381	34.3
564.576	34.45
564.772	34.43
564.968	34.33
565.163	34.12
565.359	34.12
565.555	34.27
565.75	34.22
565.946	33.87
566.141	33.72
566.337	33.62
566.532	33.73
566.728	33.64
566.923	33.59
567.119	33.62
567.314	33.58
567.51	33.65
567.705	33.53
567.901	33.56
568.096	33.62
568.292	33.88
568.487	34.13
568.682	34
568.878	34.07
569.073	34.01
569.268	33.93
569.464	34.18
569.659	34.18
569.854	34.37
570.05	34.29
570.245	34.58
570.44	34.6
570.635	34.4
570.831	34.49
571.026	34.57
571.221	34.73
571.416	34.72
571.611	34.48
571.806	34.4
572.002	34.33
572.197	34.31
572.392	34.13
572.587	34
572.782	34.33
572.977	34.17
573.172	34.15
573.367	34.08
573.562	34.2
573.757	34.48
573.952	34.61
574.147	34.54
574.342	34.65
574.537	34.63
574.732	34.57
574.927	34.4
575.121	34.59
575.316	34.67
575.511	34.8
575.706	34.74
575.901	34.54
576.096	34.62
576.29	34.7
576.485	34.73
576.68	35.01
576.875	35.06
577.069	35.02
577.264	35.17
577.459	35.06
577.654	35.12
577.848	35.19
578.043	35.46
578.238	35.71
578.432	35.84
578.627	35.92
578.821	35.93
579.016	36.17
579.21	36.29
579.405	36.16
579.6	36.14
579.794	36.34
579.989	36.48
580.183	36.68
580.378	36.49
580.572	36.82
580.766	37.03
580.961	36.98
581.155	36.8
581.35	36.94
581.544	36.82
581.738	37
581.933	36.81
582.127	36.91
582.321	36.64
582.516	36.49
582.71	36.13
582.904	36.07
583.099	36.3
583.293	36.34
583.487	36.52
583.681	36.74
583.875	36.92
584.07	37.08
584.264	37.05
584.458	37.05
584.652	37.22
584.846	37.44
585.04	37.24
585.234	36.96
585.428	37.24
585.623	37.15
585.817	37.09
586.011	36.8
586.205	36.65
586.399	36.87
586.593	37.18
586.787	37.38
586.981	37.4
587.174	37.56
587.368	37.67
587.562	37.43
587.756	37.31
587.95	37.46
588.144	37.58
588.338	37.58
588.532	37.29
588.725	37.12
588.919	36.94
589.113	36.86
589.307	36.96
589.501	36.84
589.694	36.98
589.888	36.95
590.082	36.88
590.275	36.76
590.469	36.92
590.663	37.04
590.856	36.96
591.05	37.04
591.244	37.11
591.437	37.19
591.631	37.44
591.824	37.5
592.018	37.49
592.212	37.45
592.405	37.7
592.599	37.61
592.792	37.65
592.986	37.86
593.179	37.81
593.372	37.87
593.566	37.51
593.759	37.37
593.953	37.28
594.146	37.15
594.339	37.28
594.533	37.08
594.726	36.82
594.92	36.53
595.113	36.31
595.306	36.32
595.499	36.16
595.693	36.41
595.886	36.58
596.079	36.77
596.272	36.91
596.466	36.81
596.659	36.74
596.852	37.05
597.045	37.25
597.238	37.31
597.431	37.3
597.624	37.3
597.818	37.21
598.011	37.21
598.204	37.05
598.397	36.96
598.59	37
598.783	37.03
598.976	37.05
599.169	36.92
599.362	37.02
599.555	36.86
599.748	36.83
599.941	36.97
600.134	36.97
600.326	37.03
600.519	37.48
600.712	37.7
600.905	38.01
601.098	37.97
601.291	37.89
601.483	37.54
601.676	37.62
601.869	37.57
602.062	37.4
602.255	37.38
602.447	37.26
602.64	36.89
602.833	36.51
603.025	36.33
603.218	36.36
603.411	36.25
603.603	36.59
603.796	36.64
603.989	36.57
604.181	36.41
604.374	36.35
604.566	36.51
604.759	36.57
604.951	36.78
605.144	36.83
605.336	36.93
605.529	37.15
605.721	37.08
605.914	37.14
606.106	37.34
606.299	37.67
606.491	37.86
606.683	37.89
606.876	37.91
607.068	37.92
607.26	37.7
607.453	37.49
607.645	37.34
607.837	37.45
608.03	37.43
608.222	37.5
608.414	37.6
608.606	37.5
608.799	37.54
608.991	37.95
609.183	38.09
609.375	38.45
609.567	38.65
609.759	38.98
609.952	39.22
610.144	39.45
610.336	39.61
610.528	39.77
610.72	40.08
610.912	40.24
611.104	40.35
611.296	40.54
611.488	40.7
611.68	40.97
611.872	41.05
612.064	40.96
612.256	40.93
612.448	41.13
612.64	40.91
612.832	40.89
613.023	40.61
613.215	40.3
613.407	39.97
613.599	39.61
613.791	39.24
613.983	39.23
614.174	39.07
614.366	38.87
614.558	38.57
614.75	38.7
614.941	38.37
615.133	38.44
615.325	38.36
615.516	38.62
615.708	38.6
615.9	38.71
616.091	38.86
616.283	38.54
616.475	38.43
616.666	38.34
616.858	38.42
617.049	38.65
617.241	38.57
617.432	38.58
617.624	38.6
617.815	38.6
618.007	38.65
618.198	38.38
618.39	38.65
618.581	38.73
618.773	38.12
618.964	37.73
619.155	37.49
619.347	37.49
619.538	37.71
619.729	37.57
619.921	37.91
620.112	37.93
620.303	37.88
620.494	37.79
620.686	38.01
620.877	38.55
621.068	38.62
621.259	38.7
621.451	38.95
621.642	38.4
621.833	38.43
622.024	38.32
622.215	37.89
622.406	37.79
622.597	37.95
622.788	37.74
622.98	37.55
623.171	37.56
623.362	37.68
623.553	37.92
623.744	38.18
623.935	37.84
624.126	37.86
624.317	37.98
624.508	37.87
624.698	37.73
624.889	37.77
625.08	38.19
625.271	38.4
625.462	38.3
625.653	37.67
625.844	37.6
626.034	37.67
626.225	37.82
626.416	37.87
626.607	37.83
626.798	37.56
626.988	37.5
627.179	37.65
627.37	37.29
627.56	37.27
627.751	37.64
627.942	37.92
628.132	37.92
628.323	37.64
628.514	37.86
628.704	38.21
628.895	38.45
629.085	38.3
629.276	37.99
629.466	38.31
629.657	38.16
629.847	37.97
630.038	38.11
630.228	38.59
630.419	39.05
630.609	39.23
630.8	38.89
630.99	38.96
631.181	39.47
631.371	39.91
631.561	39.94
631.752	40.34
631.942	40.34
632.132	39.95
632.323	39.48
632.513	39.12
632.703	38.49
632.893	38.78
633.084	38.89
633.274	38.81
633.464	38.33
633.654	38.35
633.844	37.98
634.034	37.76
634.225	37.76
634.415	37.71
634.605	37.78
634.795	37.96
634.985	37.98
635.175	37.88
635.365	37.78
635.555	37.62
635.745	37.53
635.935	37.74
636.125	37.94
636.315	38.11
636.505	38.32
636.695	38.28
636.885	38.37
637.075	38.35
637.265	38.34
637.455	38.35
637.644	38.69
637.834	38.53
638.024	38.68
638.214	38.92
638.404	38.44
638.593	38.6
638.783	38.48
638.973	38.31
639.163	38.12
639.352	37.88
639.542	37.93
639.732	37.9
639.921	38.31
640.111	38.15
640.301	38.02
640.49	38.77
640.68	38.82
640.87	38.73
641.059	39.09
641.249	39.42
641.438	39.49
641.628	39.4
641.817	39.24
642.007	39.1
642.196	39.11
642.386	39.13
642.575	39.2
642.764	38.97
642.954	39.41
643.143	39.33
643.333	39.32
643.522	39.55
643.711	39.82
643.901	39.85
644.09	39.88
644.279	40.1
644.469	40.33
644.658	40.15
644.847	40.11
645.036	40.02
645.226	39.91
645.415	39.91
645.604	39.54
645.793	39.23
645.982	39.3
646.171	39.39
646.361	39.29
646.55	39.44
646.739	39.32
646.928	39.29
647.117	39.14
647.306	39.75
647.495	39.41
647.684	39.66
647.873	39.93
648.062	40.02
648.251	39.74
648.44	39.37
648.629	38.54
648.818	38.48
649.007	38.75
649.196	38.61
649.384	37.96
649.573	37.95
649.762	38.17
649.951	37.95
650.14	37.74
650.328	37.61
650.517	37.61
650.706	37.95
650.895	37.86
651.083	37.95
651.272	38.38
651.461	38.17
651.65	38.11
651.838	37.99
652.027	38.2
652.216	38.17
652.404	38.14
652.593	38.19
652.781	38.36
652.97	38.63
653.158	38.24
653.347	38.07
653.535	38.44
653.724	38.39
653.912	38.8
654.101	38.36
654.289	38.39
654.478	38.63
654.666	38.42
654.855	38.2
655.043	38
655.231	38.13
655.42	38.27
655.608	38.55
655.796	38.59
655.985	38.33
656.173	38.21
656.361	38.31
656.55	38.35
656.738	39.17
656.926	39.26
657.114	39.01
657.302	38.87
657.491	38.52
657.679	38.34
657.867	38.56
658.055	38.46
658.243	38.91
658.431	39.21
658.619	39.25
658.807	38.94
658.996	38.78
659.184	38.97
659.372	38.97
659.56	38.91
659.748	38.53
659.936	38.66
660.124	38.37
660.311	38.27
660.499	37.91
660.687	37.78
660.875	37.78
661.063	37.74
661.251	37.64
661.439	38.06
661.627	38.48
661.814	39
662.002	38.77
662.19	39.44
662.378	39.74
662.565	39.91
662.753	40.12
662.941	40.37
663.129	40.51
663.316	40.8
663.504	40.22
663.692	39.56
663.879	39.27
664.067	39.28
664.254	39.04
664.442	38.6
664.63	38.99
664.817	38.64
665.005	38.4
665.192	38.85
665.38	38.63
665.567	38.56
665.755	38.9
665.942	39.11
666.13	38.98
666.317	38.7
666.504	38.75
666.692	38.49
666.879	38.51
667.067	38.58
667.254	38.73
667.441	38.72
667.629	39.04
667.816	38.71
668.003	38.64
668.19	39.22
668.378	39.66
668.565	39.71
668.752	39.45
668.939	39.52
669.127	39.24
669.314	38.89
669.501	39.01
669.688	39
669.875	39.65
670.062	39.6
670.249	39.22
670.436	38.85
670.623	38.83
670.81	38.68
670.997	38.45
671.184	39
671.371	39.37
671.558	39.1
671.745	38.99
671.932	38.38
672.119	37.93
672.306	37.98
672.493	38.05
672.68	37.92
672.867	38.34
673.054	38.61
673.24	38.23
673.427	37.69
673.614	37.39
673.801	37.56
673.988	37.91
674.174	38.49
674.361	38.68
674.548	38.59
674.734	38.73
674.921	38.33
675.108	38.19
675.294	38.08
675.481	38.25
675.668	38.64
675.854	38.6
676.041	38.63
676.227	38.5
676.414	38.08
676.601	37.79
676.787	37.96
676.974	38.1
677.16	38.22
677.347	38.36
677.533	38.37
677.719	38.59
677.906	38.65
678.092	38.73
678.279	38.52
678.465	38.82
678.651	38.8
678.838	38.44
679.024	38.45
679.21	38.3
679.397	38.46
679.583	38.57
679.769	38.02
679.955	37.55
680.142	37.67
680.328	37.78
680.514	37.41
680.7	37.6
680.886	37.83
681.073	37.73
681.259	37.99
681.445	37.85
681.631	37.44
681.817	37.78
682.003	38.01
682.189	37.6
682.375	37.86
682.561	38.09
682.747	37.93
682.933	37.97
683.119	38.34
683.305	38.17
683.491	37.79
683.677	38.43
683.863	38.47
684.049	38.56
684.235	39.26
684.42	38.95
684.606	38.84
684.792	39.25
684.978	39.51
685.164	39.06
685.349	39.37
685.535	39.63
685.721	39.3
685.907	39.15
686.092	38.95
686.278	38.88
686.464	38.82
686.649	38.9
686.835	38.87
687.021	39.11
687.206	39.54
687.392	39.36
687.577	39.68
687.763	39.57
687.948	39.97
688.134	40.13
688.319	39.63
688.505	39.99
688.69	40.1
688.876	39.78
689.061	39.02
689.247	38.77
689.432	38.88
689.618	38.2
689.803	38.31
689.988	38.46
690.174	38.6
690.359	38.98
690.544	38.76
690.73	38.55
690.915	38.63
691.1	39.11
691.285	39.47
691.471	39.91
691.656	40.07
691.841	39.49
692.026	38.94
692.211	38.7
692.396	38.35
692.582	38.65
692.767	38.85
692.952	39.41
693.137	39.35
693.322	39.17
693.507	39
693.692	38.81
693.877	39.68
694.062	40.1
694.247	41.16
694.432	41.31
694.617	41.07
694.802	40.98
694.987	40.43
695.172	40.3
695.357	40.47
695.541	40.14
695.726	40.71
695.911	40.75
696.096	40.62
696.281	40.23
696.466	40.35
696.65	40.38
696.835	40.49
697.02	40.29
697.204	40.5
697.389	40.36
697.574	40.13
697.759	40.01
697.943	39.65
698.128	39.49
698.312	39.12
698.497	38.91
698.682	39.1
698.866	38.86
699.051	38.95
699.235	38.77
699.42	38.7
699.604	38.62
699.789	38.55
699.973	38.49
700.158	38.45
700.342	38.38
700.527	38.66
700.711	38.55
700.895	38.79
701.08	39.13
701.264	39.72
701.448	39.27
701.633	39.91
701.817	40.71
702.001	41.49
702.186	41.37
702.37	41.81
702.554	41.78
702.738	42.16
702.923	42.28
703.107	42.06
703.291	41.82
703.475	43.19
703.659	42.67
703.843	41.82
704.027	40.99
704.212	41.29
704.396	41.63
704.58	41.58
704.764	40.54
704.948	40.13
705.132	40.58
705.316	40.02
705.5	39.5
705.684	39.86
705.868	40.05
706.052	40.64
706.235	41.19
706.419	41.11
706.603	40.95
706.787	41.22
706.971	40.94
707.155	40.75
707.339	40.72
707.522	41.11
707.706	40.82
707.89	40.34
708.074	40.33
708.257	39.85
708.441	39.94
708.625	40.51
708.808	40.57
708.992	41.52
709.176	41.59
709.359	41.42
709.543	40.44
709.727	40.75
709.91	41.2
710.094	40.89
710.277	41.45
710.461	41.26
710.644	41.24
710.828	42.38
711.011	42.09
711.195	42.1
711.378	42.08
711.562	42.28
711.745	41.64
711.928	41.49
712.112	41.42
712.295	40.96
712.478	40.96
712.662	40.49
712.845	39.55
713.028	39.1
713.212	39
713.395	39.42
713.578	39.72
713.761	40.13
713.945	40.73
714.128	40.98
714.311	40.84
714.494	40.55
714.677	40.19
714.86	40.25
715.043	40.69
715.227	40.81
715.41	41.12
715.593	41.19
715.776	41.87
715.959	41.26
716.142	41.49
716.325	41.42
716.508	41.6
716.691	41.92
716.874	41.67
717.057	41.55
717.239	41.34
717.422	40.49
717.605	39.95
717.788	38.94
717.971	39.96
718.154	39.71
718.337	40.32
718.519	39.89
718.702	39.85
718.885	39.13
719.068	39.48
719.25	39.37
719.433	40.2
719.616	40.97
719.798	41.57
719.981	40.52
720.164	40.11
720.346	39.85
720.529	40.78
720.712	40.87
720.894	42.44
721.077	42.3
721.259	43.14
721.442	43.18
721.624	43.24
721.807	43.08
721.989	43.21
722.172	43.58
722.354	43.27
722.537	42.82
722.719	43.35
722.901	42.94
723.084	43.14
723.266	42.39
723.448	42.26
723.631	40.93
723.813	41.51
723.995	41.23
724.178	41.52
724.36	41.38
724.542	40.58
724.724	39.97
724.907	39.92
725.089	40.19
725.271	40.45
725.453	40.1
725.635	40.36
725.817	39.81
725.999	40.27
726.181	39.72
726.364	40.24
726.546	40.81
726.728	41.2
726.91	40.52
727.092	40.41
727.274	40.83
727.456	40.82
727.638	40.75
727.819	41.37
728.001	41.5
728.183	42.02
728.365	41.87
728.547	41.94
728.729	41.81
728.911	42.55
729.093	42.92
729.274	41.68
729.456	41.89
729.638	43.17
729.82	42.65
730.001	41.63
730.183	42.03
730.365	41.65
730.546	41.68
730.728	41.96
730.91	41.19
731.091	40.99
731.273	41.42
731.455	42.2
731.636	41.9
731.818	42.33
731.999	43.3
732.181	42.28
732.362	42.02
732.544	42.18
732.725	41.31
732.907	41.67
733.088	41.24
733.27	42.47
733.451	41.29
733.633	41
733.814	41.32
733.995	40.92
734.177	41.71
734.358	42.62
734.539	41.61
734.721	41.97
734.902	42.67
735.083	43.29
735.264	41.21
735.446	41.86
735.627	41.46
735.808	40.87
735.989	42.48
736.17	42.77
736.351	42.97
736.533	44.28
736.714	44.8
736.895	43.53
737.076	43.12
737.257	44.99
737.438	43.85
737.619	44.51
737.8	43.35
737.981	42.32
738.162	42.08
738.343	41.44
738.524	41.48
738.705	41.47
738.886	42.36
739.067	42.78
739.247	42.61
739.428	43.48
739.609	43
739.79	43.85
739.971	44.02
740.151	42.51
740.332	42.75
740.513	42.56
740.694	42.78
740.874	42.57
741.055	41.38
741.236	41.01
741.417	40.34
741.597	41.29
741.778	41.75
741.958	40.98
742.139	41.43
742.32	41.24
742.5	41.2
742.681	41.45
742.861	41.83
743.042	42.64
743.222	43.03
743.403	44.03
743.583	43.26
743.764	42.7
743.944	42.72
744.124	44.07
744.305	43.76
744.485	43.72
744.666	43.27
744.846	44.53
745.026	44.35
745.207	44.27
745.387	44.06
745.567	43.46
745.747	43.78
745.928	43.69
746.108	43.22
746.288	43.55
746.468	44.18
746.648	44.31
746.829	43.5
747.009	43.53
747.189	43.67
747.369	43.6
747.549	44.37
747.729	44.65
747.909	45.96
748.089	45.27
748.269	45.24
748.449	45
748.629	45.06
748.809	44.6
748.989	44.23
749.169	44.23
749.349	44.03
749.529	44.31
749.709	44.18
749.889	44.06
750.068	44.27
750.248	45.05
750.428	45.51
750.608	44.25
750.788	44.57
750.967	45.47
751.147	44.94
751.327	45.57
751.507	45.53
751.686	45.78
751.866	45.07
752.046	45.45
752.225	45.22
752.405	44.89
752.585	46.02
752.764	45.39
752.944	43.77
753.123	44.22
753.303	43.98
753.482	42.97
753.662	42.58
753.841	42.78
754.021	42.35
754.2	42.47
754.38	43.18
754.559	43.5
754.739	44.13
754.918	46.07
755.097	45.63
755.277	45.24
755.456	45.03
755.635	45.4
755.815	44.37
755.994	44.78
756.173	42.91
756.352	41.56
756.532	40.72
756.711	39.53
756.89	38.92
757.069	39.6
757.248	38.94
757.427	39.46
757.607	39.21
757.786	39.86
757.965	39.12
758.144	39.91
758.323	39.97
758.502	40.51
758.681	40.93
758.86	40.38
759.039	39.99
759.218	40.95
759.397	41.02
759.576	40.87
759.755	40.38
759.934	40.65
760.113	41.1
760.291	41.3
760.47	41.75
760.649	41.95
760.828	42.02
761.007	41.2
761.186	40.3
761.364	40.34
761.543	41.01
761.722	41.96
761.901	42.15
762.079	42.19
762.258	40.97
762.437	40.24
762.615	39.76
762.794	39.89
762.972	40.5
763.151	40.3
763.33	40.01
763.508	39.48
763.687	39.29
763.865	39.55
764.044	38.83
764.222	38.69
764.401	38.67
764.579	39.25
764.758	38.94
764.936	39.67
765.114	40.43
765.293	41.13
765.471	41.27
765.65	41.01
765.828	41.68
766.006	41.65
766.184	41.21
766.363	40.52
766.541	39.24
766.719	39.64
766.898	38.87
767.076	39.01
767.254	38.26
767.432	37.39
767.61	38.6
767.788	37.68
767.967	38.57
768.145	39.93
768.323	41.42
768.501	42.44
768.679	41.69
768.857	42.53
769.035	41.69
769.213	43.7
769.391	44.54
769.569	42.52
769.747	42.45
769.925	41.91
770.103	43.28
770.281	41.18
770.459	40.63
770.636	41.66
770.814	40.34
770.992	41.3
771.17	41.28
771.348	40.75
771.525	42.92
771.703	43.98
771.881	45.32
772.059	44.89
772.236	45.54
772.414	45.75
772.592	44.76
772.769	44.45
772.947	45.45
773.125	44.46
773.302	46.49
773.48	45.26
773.657	45.1
773.835	43.71
774.013	44.59
774.19	45.93
774.368	45.99
774.545	45.98
774.723	47.29
774.9	46.78
775.077	45.95
775.255	45.47
775.432	44.9
775.61	44.03
775.787	45.46
775.964	44.57
776.142	43.94
776.319	45.32
776.496	45.96
776.674	44.96
776.851	45.27
777.028	45.92
777.205	45.14
777.382	45.73
777.56	46.25
777.737	48.49
777.914	49.49
778.091	51.36
778.268	50.28
778.445	51.32
778.622	51.64
778.8	50.93
778.977	50.34
779.154	52.56
779.331	53.28
779.508	51.73
779.685	49.36
779.862	49.49
780.038	47.78
780.215	49.83
780.392	50.19
780.569	50.82
780.746	50.99
780.923	49.67
781.1	47.09
781.277	43.98
781.453	43.78
781.63	43.32
781.807	42.87
781.984	39.93
782.16	38.45
782.337	39.02
782.514	38.05
782.691	37.75
782.867	37.94
783.044	38.95
783.221	41.57
783.397	41.51
783.574	39.98
783.75	37.67
783.927	43.51
784.103	43.86
784.28	42.4
784.456	41.74
784.633	42.48
784.809	44.94
784.986	42.55
785.162	43.72
785.339	45.26
785.515	44.93
785.692	49
785.868	45.6
786.044	46.18
786.221	46.6
786.397	49.05
786.573	46.07
786.749	44.74
786.926	45.9
787.102	44.64
787.278	44.13
787.454	47.51
787.631	45.71
787.807	46.2
787.983	46.22
788.159	46.01
788.335	45.61
788.511	47.37
788.687	47.43
788.863	47.66
789.039	46.95
789.216	47.19
789.392	44.55
789.568	44.14
789.744	43.51
789.919	43.95
790.095	42.85
790.271	41.35
790.447	41.04
790.623	40.37
790.799	41.2
790.975	40.93
791.151	42.58
791.327	43.08
791.502	41.9
791.678	43.73
791.854	42.25
792.03	40.83
792.205	41.93
792.381	41.13
792.557	38.66
792.733	35.45
792.908	37.16
793.084	34.54
793.259	34.03
793.435	33.83
793.611	33.46
793.786	31.39
793.962	32.33
794.137	31.94
794.313	33.04
794.488	38.68
794.664	40.71
794.839	40.53
795.015	41.51
795.19	40.26
795.366	42.6
795.541	40.28
795.716	40.66
795.892	41.84
796.067	41.3
796.242	42.35
796.418	40.49
796.593	39.23
796.768	38.12
796.944	37.36
797.119	39.44
797.294	38.76
797.469	40.65
797.644	41.29
797.82	42.18
797.995	41.86
798.17	39.83
798.345	37.24
798.52	39.16
798.695	39.97
798.87	38.41
799.045	39.32
799.22	39.04
799.395	41.49
799.57	41.2
799.745	39.87
799.92	41.15
800.095	41.32
800.27	42.79
800.445	41.2
800.62	40.09
800.795	40.2
800.97	39.72
801.145	40.72
801.319	36.84
801.494	36.07
801.669	39.03
801.844	41.29
802.018	41.64
802.193	43.37
802.368	43.99
802.543	44.99
802.717	49.76
802.892	51.33
803.067	51.56
803.241	50.96
803.416	50.23
803.59	50.46
803.765	47.73
803.94	49.42
804.114	46.39
804.289	45.16
804.463	43.14
804.638	39.04
804.812	37.77
804.986	35.46
805.161	40.51
805.335	44.59
805.51	40.96
805.684	39.74
805.858	38.86
806.033	40.21
806.207	40.08
806.381	42.99
806.556	43.85
806.73	46.21
806.904	47.96
807.078	46.05
807.253	45.46
807.427	45.92
807.601	48.09
807.775	47.89
807.949	48
808.123	48.99
808.298	50.29
808.472	50.04
808.646	47.49
808.82	44.8
808.994	42.29
809.168	39.34
809.342	42.11
809.516	43.81
809.69	45.26
809.864	43.56
810.038	41.94
810.212	38.18
810.385	37.65
810.559	39.87
810.733	38.47
810.907	38.39
811.081	39.75
811.255	42.2
811.428	36.79
811.602	34.98
811.776	34.93
811.95	38
812.123	39.31
812.297	39.61
812.471	39.44
812.644	42.71
812.818	41.3
812.992	44.66
813.165	39.31
813.339	40.76
813.512	42.16
813.686	43.23
813.86	42.69
814.033	42.67
814.207	43.57
814.38	42.47
814.554	43.04
814.727	47.05
814.9	45.64
815.074	45.81
815.247	41.65
815.421	41.07
815.594	43.43
815.767	41.29
815.941	38.49
816.114	40.9
816.287	41.64
816.46	41.38
816.634	36.11
816.807	37.52
816.98	37.92
817.153	40.79
817.327	40.9
817.5	40.4
817.673	42.91
817.846	45.25
818.019	44.77
818.192	43.97
818.365	40.98
818.538	45.68
818.711	41.87
818.884	40.95
819.057	42.47
819.23	42.12
819.403	42.02
819.576	44.03
819.749	46.62
819.922	45.27
820.095	45.65
820.268	48.72
820.441	48.63
820.614	50.21
820.786	50.31
820.959	49.91
821.132	48.92
821.305	46.5
821.477	44.56
821.65	42.57
821.823	41.87
821.996	41.1
822.168	40.55
822.341	40.01
822.514	39.45
822.686	39.27
822.859	38.6
823.031	37.96
823.204	38.51
823.376	38.84
823.549	38.77
823.722	38.64
823.894	39.15
824.067	38.56
824.239	38.23
824.411	38.4
824.584	38.45
824.756	38.83
824.929	39.36
825.101	38.96
825.273	38.81
825.446	38.69
825.618	39.21
825.79	39.06
825.963	40.03
826.135	40.3
826.307	40.19
826.479	39.69
826.652	39.74
826.824	40.91
826.996	40.57
827.168	40.76
827.34	41.1
827.512	41.15
827.684	39.56
827.856	38.66
828.029	38.64
828.201	37.81
828.373	38.04
828.545	37.99
828.717	37.24
828.889	37.05
829.061	37.14
829.232	37.55
829.404	37.73
829.576	38.81
829.748	39.63
829.92	41.2
830.092	43.14
830.264	43.9
830.436	42.88
830.607	42.38
830.779	44.14
830.951	43.28
831.123	43.84
831.294	42.47
831.466	42.29
831.638	41.8
831.809	39.33
831.981	37.82
832.153	35.85
832.324	36.94
832.496	35.97
832.667	39.21
832.839	39.88
833.011	36.66
833.182	37.83
833.354	38.22
833.525	37.26
833.697	34.94
833.868	33.83
834.039	36.6
834.211	37.87
834.382	39.28
834.554	37.33
834.725	35.51
834.896	36.45
835.068	37.11
835.239	37.72
835.41	39.07
835.581	40
835.753	42.15
835.924	42.06
836.095	39.67
836.266	38.94
836.438	37.72
836.609	38.92
836.78	39.09
836.951	39.78
837.122	38.9
837.293	37.76
837.464	40.14
837.635	41.38
837.806	40.25
837.977	41.04
838.148	42.23
838.319	43.14
838.49	44.93
838.661	43.93
838.832	44.88
839.003	45.64
839.174	47.61
839.345	49.99
839.516	46.48
839.687	47.98
839.857	46.22
840.028	49.5
840.199	50.54
840.37	52.53
840.54	57.4
840.711	52.82
840.882	52.7
841.053	54.74
841.223	50.51
841.394	51.33
841.564	52.15
841.735	55.6
841.906	53.27
842.076	51.7
842.247	45.74
842.417	42.3
842.588	46.16
842.758	49.4
842.929	44.11
843.099	46.59
843.27	48.07
843.44	47.05
843.611	48.02
843.781	45.71
843.951	46.75
844.122	47.93
844.292	41.46
844.462	41.86
844.633	43.9
844.803	41.48
844.973	40.4
845.144	39.08
845.314	38.59
845.484	41.68
845.654	40.45
845.824	42.78
845.995	43.35
846.165	50.93
846.335	49.76
846.505	45.2
846.675	50.94
846.845	43.56
847.015	47.44
847.185	47.63
847.355	40.82
847.525	39.64
847.695	39.07
847.865	26.79
848.035	15.69
848.205	13.54
848.375	18.54
848.545	32.52
848.715	34.74
848.884	34.93
849.054	39.54
849.224	44.99
849.394	52.61
849.564	49.86
849.733	57.91
849.903	63.88
850.073	66.16
850.243	61.14
850.412	62.71
850.582	63.47
850.752	65.15
850.921	56.86
851.091	56.22
851.26	49.9
851.43	46.41
851.599	38.72
851.769	30.46
851.939	36.09
852.108	34.86
852.278	22.03
852.447	33.81
852.616	40.12
852.786	34.19
852.955	33.85
853.125	28.52
853.294	30.71
853.463	36.62
853.633	39.66
853.802	47.51
853.971	54.63
854.141	61.74
854.31	59.7
854.479	44.81
854.648	59.32
854.818	55.61
854.987	53.72
855.156	52.1
855.325	41.18
855.494	50.99
855.663	26.77
855.832	39.5
856.001	31.19
856.171	5.56
856.34	11.52
856.509	9.69
856.678	11.96
856.847	28.18
857.016	28.06
857.185	32.65
857.353	24.75
857.522	30.04
857.691	16.72
857.86	22.78
858.029	42.67
858.198	41.76
858.367	40.33
858.535	36.4
858.704	36.15
858.873	39.75
859.042	54.64
859.21	69.5
859.379	63.86
859.548	67.71
859.717	66.51
859.885	71.66
860.054	64.46
860.222	58.61
860.391	50.16
860.56	51.02
860.728	44.22
860.897	33.52
861.065	20.99
861.234	19.92
861.402	18.87
861.571	23.55
861.739	24.38
861.908	26.01
862.076	35.37
862.244	35.44
862.413	28.42
862.581	29.27
862.749	28.52
862.918	31.82
863.086	38.91
863.254	45.49
863.423	40.84
863.591	25.32
863.759	35.03
863.927	18.39
864.096	11.14
864.264	10.39
864.432	12.14
864.6	11.2
864.768	14.71
864.936	3.18
865.104	3.02
865.272	10.21
865.44	16.44
865.608	12.87
865.776	30.03
865.944	38.14
866.112	60.26
866.28	66.62
866.448	64.61
866.616	69.68
866.784	63.93
866.952	67.09
867.12	70.77
867.288	62.88
867.455	70.2
867.623	62.75
867.791	60.33
867.959	47.13
868.127	29.04
868.294	46.66
868.462	36.68
868.63	43.52
868.797	23.21
868.965	24.47
869.133	26.82
869.3	24.22
869.468	32.39
869.636	33.75
869.803	31.42
869.971	35.98
870.138	32.4
870.306	34.54
870.473	38.47
870.641	40.41
870.808	42.22
870.975	42.81
871.143	30.62
871.31	25.12
871.478	16.16
871.645	15.42
871.812	26.72
871.98	28.98
872.147	22.45
872.314	20.61
872.482	26.38
872.649	23.51
872.816	25.98
872.983	42.1
873.15	37.05
873.318	50.65
873.485	43
873.652	38.58
873.819	29.5
873.986	40.04
874.153	43.1
874.32	45.81
874.487	49.96
874.654	50.05
874.821	38.63
874.988	46.85
875.155	14.79
875.322	38.52
875.489	32.9
875.656	20.98
875.823	6.45
875.99	-8.46
876.157	5.4
876.324	-0.47
876.49	4.89
876.657	11.26
876.824	17.68
876.991	23.85
877.157	21.65
877.324	27.37
877.491	33.72
877.658	38.07
877.824	41.6
877.991	47.36
878.157	51.46
878.324	50.91
878.491	45.22
878.657	37.66
878.824	44.18
878.99	42.68
879.157	45.72
879.323	46.67
879.49	43.13
879.656	52.03
879.823	50.17
879.989	51.59
880.156	53.48
880.322	47.22
880.488	57.89
880.655	53.93
880.821	63.27
880.987	59.05
881.154	52.56
881.32	56.75
881.486	53.55
881.652	53.58
881.819	51.42
881.985	49.51
882.151	52.59
882.317	49.1
882.483	47.94
882.649	42.91
882.816	40.74
882.982	44.52
883.148	42.06
883.314	40.43
883.48	38.86
883.646	38.35
883.812	38.51
883.978	38.92
884.144	38.83
884.31	40.14
884.476	40.81
884.642	42.14
884.807	39.62
884.973	39.63
885.139	40.22
885.305	39.1
885.471	37.32
885.637	37.97
885.802	35.79
885.968	35.8
886.134	34.84
886.3	34.33
886.465	32.69
886.631	33.36
886.797	36.77
886.962	32.16
887.128	35.72
887.293	38.78
887.459	35.69
887.625	36.1
887.79	37.26
887.956	25.81
888.121	24.94
888.287	23.95
888.452	22.36
888.618	10.93
888.783	21.82
