Data from CB_112_Reflection_3.txt Node
Date: Sat Nov 14 18:18:42 EST 2015
User: robert
Spectrometer: USB4E03001
Autoset integration time: false
Trigger mode: 4
Integration Time (sec): 1.000000E-1
Scans to average: 15
Electric dark correction enabled: true
Nonlinearity correction enabled: false
Boxcar width: 5
Stray light correction enabled: false
XAxis mode: Wavelengths
Stop averaging: false
Number of Pixels in Spectrum: 3648
>>>>>Begin Spectral Data<<<<<
177.566	254.15
177.785	-1913.3
178.005	557.95
178.225	454.07
178.445	-853.68
178.665	164.86
178.885	-617.53
179.105	101.04
179.324	206.31
179.544	102.67
179.764	99.29
179.984	104.73
180.204	110.47
180.423	93.11
180.643	107.2
180.863	117.02
181.083	75.52
181.302	81.43
181.522	102.69
181.742	57.26
181.961	64.1
182.181	88.46
182.401	156.43
182.621	96.51
182.84	5.67
183.06	-0.9
183.279	-1.12
183.499	36.06
183.719	-61.24
183.938	-36.28
184.158	13.12
184.377	39.43
184.597	31
184.816	50.87
185.036	56.96
185.256	66.17
185.475	74.32
185.695	81.24
185.914	68.81
186.134	84.37
186.353	93.7
186.572	100.79
186.792	89.22
187.011	96.87
187.231	89.45
187.45	87.9
187.67	78.38
187.889	74.34
188.108	69.33
188.328	82.51
188.547	78.05
188.766	74.91
188.986	79.09
189.205	92.51
189.424	69.21
189.644	81.58
189.863	97.24
190.082	146.29
190.302	117.13
190.521	95.99
190.74	92.34
190.959	83.48
191.178	72.87
191.398	71.48
191.617	56.09
191.836	120.62
192.055	89.71
192.274	90.65
192.494	60.58
192.713	153.49
192.932	267.44
193.151	376.16
193.37	224.95
193.589	262.96
193.808	415.59
194.027	759.39
194.246	-1640.3
194.465	2859.48
194.685	170.48
194.904	162.78
195.123	122.46
195.342	72.83
195.561	71.74
195.78	80.5
195.999	56.72
196.218	31.54
196.436	42.12
196.655	32.78
196.874	31.79
197.093	43.02
197.312	47.65
197.531	58.55
197.75	62
197.969	63.98
198.188	71.08
198.407	68.7
198.625	71.58
198.844	87.64
199.063	92.39
199.282	93.55
199.501	98.96
199.719	92.11
199.938	86.71
200.157	72.14
200.376	65.7
200.594	61.72
200.813	66.43
201.032	59.31
201.251	19.71
201.469	27.9
201.688	39.17
201.907	36.3
202.125	31.37
202.344	-17.22
202.563	20.47
202.781	33.25
203	44.78
203.218	83.07
203.437	75.18
203.656	118.35
203.874	97.41
204.093	94.59
204.311	116.71
204.53	135.12
204.748	120.09
204.967	109.02
205.185	121.97
205.404	90.75
205.622	61.52
205.841	64.23
206.059	66.85
206.278	51.24
206.496	45.74
206.715	53.21
206.933	48.03
207.151	55.92
207.37	66.96
207.588	52.02
207.806	61.75
208.025	58.72
208.243	67.49
208.461	68.78
208.68	69.96
208.898	92.79
209.116	73
209.335	70.89
209.553	72.95
209.771	67.74
209.989	68.45
210.208	53.64
210.426	63.72
210.644	56.14
210.862	48.69
211.081	58.96
211.299	36.88
211.517	45.65
211.735	53.63
211.953	43.33
212.171	51.96
212.39	54.52
212.608	64.5
212.826	58.93
213.044	68.31
213.262	72.6
213.48	73.04
213.698	80.61
213.916	81.01
214.134	68.65
214.352	68.86
214.57	60.19
214.788	68.04
215.006	82.23
215.224	96.66
215.442	114.2
215.66	103.88
215.878	97.15
216.096	89.21
216.314	80.67
216.532	91.22
216.75	104.74
216.968	105.88
217.185	119.6
217.403	130.23
217.621	162.49
217.839	112.47
218.057	128.64
218.275	115.4
218.492	133.65
218.71	191.93
218.928	207.68
219.146	247.76
219.363	213.05
219.581	198.15
219.799	223.54
220.017	173.94
220.234	189.12
220.452	200.36
220.67	226.28
220.887	365.6
221.105	471.74
221.323	7234.36
221.54	751.82
221.758	4378.57
221.976	1831.79
222.193	339.88
222.411	441.28
222.629	642.78
222.846	875.61
223.064	-772.18
223.281	849
223.499	571.32
223.716	868.94
223.934	-521.61
224.151	-149.96
224.369	-73.48
224.586	-19.88
224.804	5.56
225.021	3.79
225.239	-3
225.456	11.71
225.674	1.09
225.891	-0.01
226.108	-36.89
226.326	-65.94
226.543	-38.3
226.76	-18.31
226.978	-18.23
227.195	-30.32
227.413	-33.38
227.63	-14.94
227.847	-18.85
228.064	-5
228.282	-3.04
228.499	4.53
228.716	5.67
228.934	4.12
229.151	3.81
229.368	4.81
229.585	4.45
229.802	5.81
230.02	4.5
230.237	7.16
230.454	7.32
230.671	6.54
230.888	1.98
231.105	1.15
231.323	2.88
231.54	-5.3
231.757	-10.43
231.974	-18.95
232.191	-23.42
232.408	-20.18
232.625	-19.89
232.842	-21.3
233.059	-14.9
233.276	-9.31
233.493	-7.16
233.71	-12.65
233.927	0.26
234.144	5.09
234.361	7.52
234.578	4.97
234.795	3.62
235.012	-6.62
235.229	-15
235.446	-20.43
235.663	-19.97
235.879	-26.03
236.096	-26.36
236.313	-38.13
236.53	-38.9
236.747	-35.31
236.964	-30.6
237.181	-42.19
237.397	-29.45
237.614	-19.21
237.831	-12.92
238.048	-12.74
238.264	-7.74
238.481	-3.82
238.698	8.81
238.915	11.43
239.131	10.02
239.348	7.88
239.565	12.93
239.781	10.1
239.998	6.98
240.215	3.17
240.431	1.22
240.648	3.67
240.865	4.15
241.081	2.42
241.298	5.07
241.514	6.08
241.731	7.34
241.947	6.82
242.164	5.71
242.38	7.17
242.597	7.84
242.814	8.31
243.03	7.65
243.246	6.1
243.463	7.32
243.679	5.3
243.896	4.5
244.112	1.34
244.329	0.82
244.545	2.2
244.762	2.52
244.978	4.12
245.194	4.5
245.411	2.72
245.627	4.16
245.843	-0.63
246.06	1.3
246.276	2.28
246.492	3.98
246.709	3.9
246.925	3.25
247.141	3.31
247.357	3.18
247.574	3.44
247.79	4.58
248.006	4.93
248.222	5.99
248.439	6.01
248.655	5.63
248.871	5.29
249.087	6.56
249.303	6.45
249.519	5.61
249.736	4
249.952	4.15
250.168	3.5
250.384	2.86
250.6	3.09
250.816	2.43
251.032	3.16
251.248	3.86
251.464	-0.29
251.68	0.66
251.896	0.7
252.112	1.2
252.328	0.28
252.544	-1.42
252.76	-3.01
252.976	-4.48
253.192	-5.71
253.408	-6.05
253.624	-5.54
253.84	-3.48
254.056	-2.71
254.272	-3.11
254.487	-3.17
254.703	-2.86
254.919	-3.91
255.135	-2.32
255.351	-4.67
255.567	0.13
255.782	-0.86
255.998	-0.11
256.214	-0.86
256.43	1.53
256.646	0.61
256.861	3.19
257.077	1.05
257.293	5.43
257.508	5.87
257.724	6.26
257.94	5.36
258.155	5.02
258.371	4.1
258.587	3.74
258.802	3.9
259.018	5.2
259.234	5.31
259.449	5.96
259.665	5.67
259.88	5.66
260.096	6.83
260.312	6.59
260.527	7.45
260.743	7.04
260.958	7.38
261.174	7.59
261.389	8.17
261.605	7.59
261.82	7.49
262.036	6.74
262.251	6.47
262.466	6.52
262.682	5.77
262.897	4.45
263.113	5.63
263.328	6.64
263.543	3.26
263.759	-1.08
263.974	-2.38
264.189	-2.3
264.405	-1.9
264.62	-2.79
264.835	-4.44
265.051	-2.55
265.266	-2.42
265.481	-1.77
265.696	-3.72
265.912	-2.2
266.127	1.44
266.342	4.04
266.557	3.9
266.773	4.29
266.988	5.12
267.203	5.75
267.418	5.24
267.633	5.8
267.848	5.09
268.064	6.35
268.279	7.04
268.494	6.94
268.709	6.73
268.924	8.35
269.139	6.4
269.354	6.99
269.569	6.7
269.784	6.92
269.999	5.74
270.214	5.3
270.429	5.01
270.644	4.07
270.859	3.67
271.074	3.8
271.289	1.47
271.504	3.62
271.719	4.27
271.934	3.68
272.149	5.05
272.363	5.74
272.578	7.23
272.793	6.64
273.008	6.36
273.223	7.07
273.438	6.02
273.653	8.38
273.867	7.1
274.082	5.94
274.297	6.16
274.512	3.41
274.726	2.81
274.941	-0.12
275.156	0.09
275.371	1.61
275.585	0.03
275.8	1.08
276.015	-1.47
276.229	0.75
276.444	0.36
276.659	1.02
276.873	3.28
277.088	4.51
277.302	5.31
277.517	6.23
277.732	4.31
277.946	4.2
278.161	2.69
278.375	3.65
278.59	3.18
278.804	2.83
279.019	2.72
279.233	1.19
279.448	-0.02
279.662	0.91
279.877	0.17
280.091	2.04
280.306	2.12
280.52	3.76
280.735	3.55
280.949	3.61
281.163	4.48
281.378	3.83
281.592	4.81
281.806	4.63
282.021	4.22
282.235	3.98
282.449	3.11
282.664	4.35
282.878	3.98
283.092	3.87
283.307	3.26
283.521	3.09
283.735	3.84
283.949	2.48
284.164	3.46
284.378	4.55
284.592	5.56
284.806	6.81
285.02	5.58
285.234	6.76
285.449	6.77
285.663	7.68
285.877	7.91
286.091	7.39
286.305	7.89
286.519	8.06
286.733	7.65
286.947	8.04
287.161	7.9
287.375	9.05
287.589	8.39
287.803	8.93
288.017	8.92
288.231	9.59
288.445	9.73
288.659	9.65
288.873	7.57
289.087	7.94
289.301	6.54
289.515	5.56
289.729	4.11
289.943	1.99
290.157	1.07
290.371	0.27
290.584	-0.03
290.798	-0.77
291.012	0.74
291.226	2.71
291.44	1.98
291.654	2.95
291.867	2.97
292.081	5.33
292.295	7.11
292.509	7.13
292.722	8.05
292.936	7.77
293.15	8.87
293.364	8.17
293.577	7.31
293.791	8.66
294.005	8.15
294.218	9.04
294.432	7.24
294.645	7.31
294.859	8.88
295.073	8.18
295.286	8.16
295.5	8.45
295.713	8.07
295.927	8.58
296.14	8.29
296.354	8.02
296.568	7.71
296.781	8.09
296.994	7.85
297.208	6.5
297.421	6.8
297.635	6.84
297.848	6.27
298.062	6.76
298.275	7.2
298.489	6.93
298.702	7.03
298.915	6.21
299.129	5.58
299.342	5.65
299.555	5.8
299.769	6.51
299.982	5.65
300.195	5.84
300.409	5.64
300.622	5.08
300.835	4.3
301.048	4.08
301.262	5.08
301.475	5.33
301.688	4.61
301.901	5.72
302.115	4.96
302.328	6.93
302.541	7.22
302.754	6.31
302.967	5.07
303.18	6.07
303.393	7.13
303.607	6.47
303.82	7.65
304.033	8.83
304.246	8.12
304.459	7.86
304.672	6.82
304.885	7.04
305.098	7.28
305.311	7.86
305.524	6.93
305.737	6.23
305.95	6.72
306.163	5.63
306.376	5.06
306.589	7.08
306.802	5.62
307.015	5.1
307.228	4.24
307.44	5.28
307.653	6.42
307.866	7.57
308.079	7.53
308.292	8.23
308.505	8.02
308.718	8.68
308.93	8.05
309.143	9.94
309.356	9.87
309.569	10.74
309.781	10.84
309.994	10.27
310.207	9.54
310.42	9.52
310.632	9.55
310.845	9.18
311.058	9.93
311.27	10.31
311.483	11.12
311.696	11.9
311.908	11.86
312.121	11.49
312.333	11.72
312.546	12.61
312.759	12.71
312.971	12.64
313.184	12.93
313.396	11.67
313.609	10.42
313.821	9.41
314.034	9.26
314.246	8.64
314.459	8.38
314.671	7.76
314.884	6.78
315.096	6.04
315.309	5.38
315.521	6.13
315.733	5.83
315.946	6.04
316.158	5.46
316.371	6.14
316.583	5.71
316.795	5.45
317.008	6.53
317.22	7.19
317.432	7.63
317.644	7.24
317.857	8.34
318.069	9.7
318.281	9.49
318.494	10.13
318.706	9.67
318.918	10.35
319.13	10.4
319.342	10.84
319.555	10.61
319.767	11.37
319.979	10.89
320.191	10.73
320.403	10.6
320.615	11.15
320.827	9.31
321.039	9.27
321.252	10.2
321.464	11.22
321.676	9.5
321.888	10.37
322.1	10.12
322.312	11.12
322.524	10.25
322.736	10.93
322.948	10.22
323.16	11.72
323.372	11.49
323.584	10.75
323.796	8.71
324.007	9.9
324.219	10.07
324.431	11.2
324.643	10.3
324.855	10.72
325.067	10.27
325.279	10.76
325.491	12.66
325.702	12.93
325.914	13.35
326.126	15.47
326.338	16.42
326.55	17.13
326.761	17.84
326.973	19.12
327.185	20.47
327.396	21.36
327.608	21.96
327.82	20.65
328.032	21.67
328.243	21.32
328.455	22.7
328.666	22.77
328.878	23.11
329.09	22.98
329.301	24.23
329.513	24.08
329.725	23.6
329.936	23.57
330.148	23.09
330.359	23.48
330.571	25.31
330.782	25.12
330.994	25.84
331.205	26.53
331.417	26.88
331.628	26.55
331.84	26
332.051	25.84
332.262	26.63
332.474	28.75
332.685	29.26
332.897	29.25
333.108	29.66
333.319	29.57
333.531	29.16
333.742	29.7
333.953	31.39
334.165	31.37
334.376	32.63
334.587	33.63
334.799	33.89
335.01	34.84
335.221	35.92
335.432	36.52
335.644	37.95
335.855	38.27
336.066	38.14
336.277	37.51
336.488	38.36
336.7	37.83
336.911	37.48
337.122	37.55
337.333	37.16
337.544	36.97
337.755	35.29
337.966	34.03
338.177	33.58
338.388	33.75
338.599	33.87
338.811	33.81
339.022	34.32
339.233	33.79
339.444	32.86
339.655	33.1
339.866	33.46
340.076	34.06
340.287	34.29
340.498	34.96
340.709	35.06
340.92	36.31
341.131	35.88
341.342	35.51
341.553	35.22
341.764	36.12
341.975	36.2
342.185	35.96
342.396	36.49
342.607	36.19
342.818	36.14
343.029	36.06
343.239	34.84
343.45	35.08
343.661	35.74
343.872	36.33
344.082	36.57
344.293	36.11
344.504	35.89
344.714	36.37
344.925	37.16
345.136	37.01
345.346	37.32
345.557	37.83
345.768	38.25
345.978	37.71
346.189	38.64
346.399	37.99
346.61	38.06
346.821	38.03
347.031	37.22
347.242	36.48
347.452	36.45
347.663	35.48
347.873	34.81
348.084	35.14
348.294	35.45
348.504	35.08
348.715	34.37
348.925	33.86
349.136	33.65
349.346	33.81
349.557	34.39
349.767	34.54
349.977	35.23
350.188	34.96
350.398	34.4
350.608	34.6
350.819	34.73
351.029	34.97
351.239	34.79
351.449	35.09
351.66	34.7
351.87	34.66
352.08	34.31
352.29	34.4
352.501	34.82
352.711	36.04
352.921	36.04
353.131	35.82
353.341	35.73
353.552	35.97
353.762	35.74
353.972	35.63
354.182	35.05
354.392	34.13
354.602	33.44
354.812	33
355.022	32.11
355.232	32.37
355.442	32.59
355.652	32.54
355.862	32.44
356.072	32.03
356.282	32.39
356.492	32.27
356.702	33.12
356.912	33.1
357.122	33.42
357.332	32.89
357.542	32.53
357.752	32.29
357.962	33.27
358.171	33.07
358.381	33.33
358.591	33.44
358.801	33.47
359.011	33.69
359.221	33.81
359.43	33.94
359.64	33.85
359.85	33.57
360.06	32.98
360.269	32.09
360.479	32.22
360.689	32.12
360.899	31.83
361.108	32.12
361.318	31.82
361.528	31.88
361.737	32
361.947	32.26
362.156	32.47
362.366	32.66
362.576	33
362.785	32.98
362.995	33.32
363.204	33.41
363.414	33.22
363.623	33.01
363.833	32.58
364.042	32.25
364.252	31.98
364.461	31.93
364.671	32.04
364.88	31.73
365.09	31.48
365.299	30.7
365.509	30.37
365.718	30.15
365.927	30.3
366.137	30.61
366.346	30.33
366.555	29.87
366.765	29.46
366.974	29.4
367.183	28.77
367.393	29.35
367.602	29.86
367.811	30.2
368.021	30.09
368.23	29.62
368.439	29.61
368.648	30.25
368.857	30.58
369.067	30.49
369.276	29.68
369.485	30.33
369.694	29.44
369.903	29.52
370.112	29.53
370.321	30.04
370.531	30.77
370.74	30.19
370.949	29.42
371.158	29.72
371.367	30.21
371.576	30.28
371.785	29.84
371.994	30.12
372.203	29.53
372.412	29.41
372.621	28.94
372.83	28.54
373.039	28.89
373.248	28.94
373.457	28.41
373.666	27.78
373.874	27.82
374.083	27.7
374.292	27.16
374.501	27.52
374.71	26.39
374.919	26.25
375.128	26.5
375.336	26.58
375.545	26.55
375.754	26.29
375.963	26.12
376.171	26.56
376.38	27.04
376.589	27.19
376.798	26.81
377.006	27.26
377.215	26.95
377.424	26.43
377.632	26.05
377.841	26.01
378.05	25.85
378.258	25.77
378.467	24.85
378.675	24.48
378.884	24.1
379.093	23.99
379.301	23.92
379.51	24.21
379.718	24.02
379.927	24
380.135	24.06
380.344	24.42
380.552	24.43
380.761	24.6
380.969	24.95
381.177	25.49
381.386	25.33
381.594	25.82
381.803	25.77
382.011	25.89
382.219	25.73
382.428	25.38
382.636	25.23
382.845	25.04
383.053	25.06
383.261	24.5
383.469	24.26
383.678	24.11
383.886	23.91
384.094	23.59
384.302	23.22
384.511	23.45
384.719	23.33
384.927	23.28
385.135	23.02
385.343	22.96
385.552	23.07
385.76	22.37
385.968	22.15
386.176	21.46
386.384	21.71
386.592	21.6
386.8	20.68
387.008	20.57
387.216	20.57
387.424	20.77
387.633	20.68
387.841	20.15
388.049	20.59
388.257	20.81
388.465	20.88
388.672	20.12
388.88	20.08
389.088	20.63
389.296	20.45
389.504	19.98
389.712	19.84
389.92	19.96
390.128	20.48
390.336	20.25
390.544	20.39
390.751	20.2
390.959	20.35
391.167	20.43
391.375	20.35
391.583	20.06
391.79	20.42
391.998	20.48
392.206	20.37
392.414	19.63
392.621	19.49
392.829	19.23
393.037	19.48
393.244	19.44
393.452	19.34
393.66	19.04
393.867	19.08
394.075	19.04
394.283	18.9
394.49	18.53
394.698	18.82
394.905	18.77
395.113	18.57
395.32	18.39
395.528	18.45
395.735	18.59
395.943	18.59
396.15	18.53
396.358	17.95
396.565	18.02
396.773	18.15
396.98	17.96
397.188	18.08
397.395	18.13
397.602	18.25
397.81	18.18
398.017	17.78
398.225	17.88
398.432	17.79
398.639	18.11
398.847	17.82
399.054	17.87
399.261	18.07
399.468	18.01
399.676	18.09
399.883	17.84
400.09	17.83
400.297	17.9
400.505	17.79
400.712	17.96
400.919	17.93
401.126	17.72
401.333	17.84
401.54	17.88
401.748	18.03
401.955	17.81
402.162	18.14
402.369	17.84
402.576	17.75
402.783	17.71
402.99	17.89
403.197	17.98
403.404	17.95
403.611	17.48
403.818	17.41
404.025	17.25
404.232	17.26
404.439	17.2
404.646	17.27
404.853	17.14
405.06	17.13
405.267	17.1
405.474	16.78
405.681	16.92
405.887	16.94
406.094	16.74
406.301	16.81
406.508	16.72
406.715	16.28
406.922	16.3
407.128	16.64
407.335	16.72
407.542	16.63
407.749	16.57
407.955	16.32
408.162	16.72
408.369	16.71
408.575	16.56
408.782	16.65
408.989	16.71
409.195	16.82
409.402	16.62
409.609	16.42
409.815	16.22
410.022	16.25
410.228	16.28
410.435	16.24
410.642	16.45
410.848	16.12
411.055	16.27
411.261	16.32
411.468	16.14
411.674	15.94
411.881	15.95
412.087	15.79
412.294	16.09
412.5	16.31
412.706	16.04
412.913	15.54
413.119	15.72
413.326	15.52
413.532	15.78
413.738	15.66
413.945	15.55
414.151	15.71
414.357	15.91
414.564	15.68
414.77	15.46
414.976	15.8
415.182	15.88
415.389	16.01
415.595	16.1
415.801	15.94
416.007	16.22
416.214	16.2
416.42	16.13
416.626	16.07
416.832	16.03
417.038	16.07
417.244	16
417.45	16.19
417.657	15.95
417.863	15.69
418.069	15.65
418.275	15.42
418.481	15.45
418.687	15.39
418.893	15.45
419.099	15.48
419.305	15.52
419.511	15.42
419.717	15.29
419.923	15.34
420.129	15.35
420.335	15.17
420.541	15.3
420.746	15.39
420.952	15.38
421.158	15.43
421.364	15.3
421.57	15.24
421.776	15.27
421.982	15.21
422.187	15.15
422.393	15.25
422.599	15.48
422.805	15.47
423.01	15.61
423.216	15.57
423.422	15.49
423.628	15.6
423.833	15.63
424.039	15.7
424.245	15.8
424.45	15.98
424.656	15.99
424.862	15.83
425.067	15.83
425.273	15.69
425.478	15.69
425.684	15.65
425.889	15.55
426.095	15.66
426.301	15.42
426.506	15.37
426.712	15.26
426.917	15.42
427.123	15.46
427.328	15.46
427.533	15.52
427.739	15.56
427.944	15.62
428.15	15.66
428.355	15.51
428.561	15.5
428.766	15.54
428.971	15.4
429.177	15.19
429.382	15.25
429.587	15.18
429.793	14.94
429.998	14.98
430.203	14.74
430.408	14.77
430.614	14.55
430.819	14.8
431.024	14.87
431.229	15
431.434	14.83
431.64	14.83
431.845	14.88
432.05	14.93
432.255	14.86
432.46	14.95
432.665	14.73
432.87	14.68
433.076	14.42
433.281	14.34
433.486	14.13
433.691	14
433.896	13.93
434.101	13.82
434.306	13.67
434.511	13.71
434.716	13.76
434.921	13.94
435.126	14.1
435.331	14.38
435.535	14.48
435.74	14.61
435.945	14.84
436.15	14.91
436.355	15
436.56	15.34
436.765	15.35
436.97	15.52
437.174	15.63
437.379	15.6
437.584	15.52
437.789	15.45
437.993	15.52
438.198	15.61
438.403	15.62
438.608	15.53
438.812	15.5
439.017	15.41
439.222	15.28
439.426	15.15
439.631	15.14
439.836	15.08
440.04	15.19
440.245	15.03
440.45	14.84
440.654	14.74
440.859	14.73
441.063	14.57
441.268	14.56
441.472	14.4
441.677	14.55
441.881	14.67
442.086	14.69
442.29	14.42
442.495	14.64
442.699	14.61
442.904	14.69
443.108	14.71
443.312	14.79
443.517	14.73
443.721	14.88
443.925	14.74
444.13	14.72
444.334	14.63
444.538	14.77
444.743	14.62
444.947	14.75
445.151	14.68
445.356	14.62
445.56	14.6
445.764	14.73
445.968	14.6
446.173	14.6
446.377	14.39
446.581	14.36
446.785	14.25
446.989	14.19
447.193	14.25
447.398	14.34
447.602	14.42
447.806	14.38
448.01	14.32
448.214	14.49
448.418	14.31
448.622	14.36
448.826	14.29
449.03	14.51
449.234	14.66
449.438	14.51
449.642	14.26
449.846	14.03
450.05	14.05
450.254	13.89
450.458	13.69
450.662	13.86
450.866	13.89
451.069	14.05
451.273	13.77
451.477	13.76
451.681	13.62
451.885	13.94
452.089	14.05
452.292	14.17
452.496	14.29
452.7	14.19
452.904	14.18
453.107	14.12
453.311	14.04
453.515	14.27
453.719	14.15
453.922	14.08
454.126	13.8
454.33	13.86
454.533	13.76
454.737	13.8
454.94	13.99
455.144	13.95
455.348	13.98
455.551	13.87
455.755	13.77
455.958	13.81
456.162	13.94
456.365	14.08
456.569	14.06
456.772	14.13
456.976	14.1
457.179	14.01
457.383	13.98
457.586	14.12
457.79	14.34
457.993	14.3
458.196	14.26
458.4	14.37
458.603	14.14
458.807	14.18
459.01	14.05
459.213	14.08
459.417	14.15
459.62	14.16
459.823	14.05
460.026	13.95
460.23	13.95
460.433	14.09
460.636	14.15
460.839	14.27
461.042	14.14
461.246	14.17
461.449	14.14
461.652	14.09
461.855	14.18
462.058	14.27
462.261	14.36
462.464	14.44
462.668	14.33
462.871	14.26
463.074	14.36
463.277	14.57
463.48	14.54
463.683	14.49
463.886	14.38
464.089	14.19
464.292	14.19
464.495	14.32
464.698	14.25
464.901	14.24
465.104	14.08
465.306	13.91
465.509	13.65
465.712	13.57
465.915	13.61
466.118	13.69
466.321	13.79
466.524	13.74
466.726	13.7
466.929	13.61
467.132	13.55
467.335	13.57
467.538	13.76
467.74	13.83
467.943	14.06
468.146	14.14
468.348	14.18
468.551	14.25
468.754	14.32
468.956	14.13
469.159	14.09
469.362	14.1
469.564	14.09
469.767	13.99
469.969	13.99
470.172	13.99
470.375	13.74
470.577	13.86
470.78	13.54
470.982	13.59
471.185	13.66
471.387	13.81
471.59	13.85
471.792	13.79
471.995	13.72
472.197	13.83
472.399	13.58
472.602	13.76
472.804	13.51
473.007	13.62
473.209	13.7
473.411	13.68
473.614	13.68
473.816	13.69
474.018	13.87
474.22	13.96
474.423	13.89
474.625	14.08
474.827	14.14
475.03	14.26
475.232	14.28
475.434	14.26
475.636	14.39
475.838	14.32
476.04	14.36
476.243	14.17
476.445	14.13
476.647	14.12
476.849	14.03
477.051	13.98
477.253	13.94
477.455	13.9
477.657	13.78
477.859	13.58
478.061	13.57
478.263	13.42
478.465	13.42
478.667	13.48
478.869	13.45
479.071	13.48
479.273	13.49
479.475	13.65
479.677	13.61
479.879	13.62
480.081	13.71
480.283	13.66
480.485	13.71
480.686	13.93
480.888	13.97
481.09	14.04
481.292	14.04
481.494	13.9
481.695	13.92
481.897	14.1
482.099	14.09
482.301	14.16
482.502	14.21
482.704	14.31
482.906	14.23
483.107	14.23
483.309	14.2
483.511	14.2
483.712	14.3
483.914	14.28
484.115	14.26
484.317	14.31
484.519	14.25
484.72	14.24
484.922	14.18
485.123	14.18
485.325	14.1
485.526	14.08
485.728	14.08
485.929	14.04
486.131	13.98
486.332	13.97
486.534	13.94
486.735	14
486.936	14.07
487.138	14.14
487.339	14.1
487.541	14.22
487.742	14.23
487.943	14.24
488.144	14.26
488.346	14.28
488.547	14.25
488.748	14.19
488.95	14.19
489.151	14.04
489.352	13.97
489.553	14.04
489.755	13.98
489.956	14.03
490.157	14
490.358	13.96
490.559	13.98
490.76	14.02
490.961	13.99
491.163	13.97
491.364	14.03
491.565	14.02
491.766	14.08
491.967	14.03
492.168	14.03
492.369	14.05
492.57	14.01
492.771	13.94
492.972	13.83
493.173	13.89
493.374	13.87
493.575	13.9
493.776	13.93
493.976	13.77
494.177	13.71
494.378	13.74
494.579	13.79
494.78	13.86
494.981	13.99
495.182	14.19
495.382	14.16
495.583	14.1
495.784	14
495.985	14.05
496.185	14.05
496.386	14.05
496.587	13.96
496.788	13.97
496.988	13.9
497.189	13.98
497.39	14.11
497.59	14.11
497.791	14.2
497.992	14.34
498.192	14.23
498.393	14.39
498.593	14.52
498.794	14.47
498.994	14.43
499.195	14.32
499.395	14.17
499.596	14.05
499.796	14.15
499.997	14.23
500.197	14.2
500.398	14.22
500.598	14.2
500.799	14.17
500.999	14.24
501.199	14.03
501.4	14.26
501.6	14.31
501.801	14.22
502.001	14.26
502.201	14.3
502.402	14.38
502.602	14.35
502.802	14.2
503.002	14.33
503.203	14.34
503.403	14.53
503.603	14.39
503.803	14.4
504.003	14.4
504.204	14.28
504.404	14.2
504.604	14.26
504.804	14.43
505.004	14.4
505.204	14.29
505.404	14.5
505.604	14.54
505.804	14.74
506.005	14.79
506.205	14.93
506.405	14.91
506.605	14.97
506.805	14.93
507.005	14.81
507.204	15.1
507.404	15.08
507.604	15.07
507.804	15.04
508.004	14.96
508.204	15.04
508.404	15.04
508.604	15.29
508.804	15.41
509.003	15.61
509.203	15.72
509.403	15.72
509.603	15.79
509.803	15.9
510.002	15.9
510.202	16.03
510.402	16.07
510.602	16.16
510.801	16.18
511.001	15.99
511.201	15.91
511.4	15.95
511.6	16.07
511.8	16.22
511.999	16.1
512.199	16.22
512.398	16.22
512.598	16.38
512.797	16.42
512.997	16.42
513.197	16.63
513.396	16.6
513.596	16.67
513.795	16.8
513.994	16.6
514.194	16.81
514.393	16.93
514.593	17.15
514.792	17.13
514.992	17.2
515.191	17.28
515.39	17.38
515.59	17.56
515.789	17.61
515.988	17.56
516.188	17.89
516.387	18.05
516.586	18.24
516.786	18.12
516.985	18.1
517.184	18.13
517.383	18.16
517.582	18.11
517.782	18.26
517.981	18.42
518.18	18.53
518.379	18.6
518.578	18.44
518.777	18.37
518.976	18.52
519.176	18.56
519.375	18.66
519.574	18.76
519.773	18.82
519.972	18.79
520.171	18.8
520.37	18.85
520.569	18.85
520.768	19.06
520.967	19.16
521.166	19.27
521.365	19.47
521.564	19.6
521.762	19.86
521.961	19.97
522.16	20.18
522.359	20.42
522.558	20.51
522.757	20.58
522.956	20.77
523.154	20.91
523.353	20.9
523.552	21.12
523.751	21.3
523.949	21.38
524.148	21.6
524.347	21.63
524.546	21.67
524.744	21.83
524.943	22.08
525.142	22.1
525.34	22.23
525.539	22.34
525.737	22.44
525.936	22.46
526.135	22.6
526.333	22.71
526.532	22.8
526.73	22.78
526.929	22.84
527.127	22.85
527.326	22.96
527.524	23.08
527.723	23.23
527.921	23.35
528.12	23.5
528.318	23.5
528.516	23.64
528.715	23.75
528.913	23.93
529.112	23.99
529.31	24.13
529.508	24.21
529.707	24.3
529.905	24.39
530.103	24.37
530.301	24.42
530.5	24.61
530.698	24.67
530.896	24.71
531.094	24.79
531.293	24.93
531.491	24.97
531.689	25.08
531.887	25.11
532.085	25.26
532.283	25.41
532.481	25.56
532.68	25.64
532.878	25.68
533.076	25.85
533.274	25.88
533.472	26.04
533.67	26.22
533.868	26.33
534.066	26.43
534.264	26.49
534.462	26.61
534.66	26.67
534.858	26.72
535.056	26.83
535.253	26.93
535.451	27.12
535.649	27.22
535.847	27.27
536.045	27.35
536.243	27.6
536.441	27.73
536.638	27.87
536.836	28.02
537.034	28.16
537.232	28.34
537.43	28.34
537.627	28.29
537.825	28.34
538.023	28.44
538.22	28.57
538.418	28.52
538.616	28.66
538.813	28.74
539.011	28.76
539.209	28.79
539.406	28.87
539.604	29.1
539.801	29.42
539.999	29.6
540.196	29.65
540.394	29.76
540.591	29.91
540.789	29.81
540.986	29.95
541.184	30.18
541.381	30.28
541.579	30.3
541.776	30.44
541.974	30.46
542.171	30.48
542.368	30.66
542.566	30.75
542.763	30.95
542.96	31.22
543.158	31.33
543.355	31.37
543.552	31.49
543.75	31.64
543.947	31.66
544.144	31.84
544.341	31.95
544.539	32.03
544.736	32.11
544.933	32.08
545.13	32.01
545.327	32.03
545.524	32.09
545.722	32.16
545.919	32.28
546.116	32.41
546.313	32.39
546.51	32.37
546.707	32.31
546.904	32.26
547.101	32.32
547.298	32.45
547.495	32.45
547.692	32.46
547.889	32.56
548.086	32.61
548.283	32.61
548.48	32.61
548.677	32.81
548.874	32.91
549.07	33.11
549.267	33.33
549.464	33.41
549.661	33.49
549.858	33.47
550.055	33.47
550.251	33.52
550.448	33.44
550.645	33.61
550.842	33.56
551.038	33.52
551.235	33.87
551.432	33.77
551.628	33.77
551.825	33.97
552.022	34.22
552.218	34.34
552.415	34.17
552.612	34.36
552.808	34.26
553.005	34.36
553.201	34.51
553.398	34.32
553.594	34.24
553.791	34.35
553.987	34.31
554.184	34.24
554.38	34.11
554.577	34.4
554.773	34.36
554.97	34.48
555.166	34.49
555.362	34.45
555.559	34.56
555.755	34.6
555.952	34.49
556.148	34.22
556.344	34.11
556.541	34.24
556.737	34.39
556.933	34.43
557.129	34.55
557.326	34.69
557.522	34.85
557.718	34.85
557.914	35.24
558.11	35.35
558.307	35.84
558.503	36.04
558.699	35.96
558.895	35.8
559.091	35.83
559.287	35.83
559.483	35.83
559.679	35.81
559.876	35.87
560.072	35.63
560.268	35.53
560.464	35.68
560.66	35.65
560.856	35.77
561.052	35.86
561.247	36.04
561.443	36.14
561.639	36.27
561.835	36.27
562.031	36.42
562.227	36.34
562.423	36.57
562.619	36.64
562.815	36.74
563.01	36.85
563.206	37.1
563.402	36.97
563.598	37.03
563.793	36.89
563.989	37.02
564.185	36.82
564.381	36.88
564.576	37
564.772	36.68
564.968	36.75
565.163	36.77
565.359	36.76
565.555	36.93
565.75	36.91
565.946	36.93
566.141	37.06
566.337	37.23
566.532	37.5
566.728	37.54
566.923	37.67
567.119	37.66
567.314	37.59
567.51	37.51
567.705	37.44
567.901	37.43
568.096	37.67
568.292	37.5
568.487	37.5
568.682	37.24
568.878	37.31
569.073	37.37
569.268	37.5
569.464	37.56
569.659	37.72
569.854	37.87
570.05	37.91
570.245	37.82
570.44	37.95
570.635	37.86
570.831	37.97
571.026	37.71
571.221	37.62
571.416	37.56
571.611	37.71
571.806	37.6
572.002	37.61
572.197	37.88
572.392	37.97
572.587	37.95
572.782	38.06
572.977	38.03
573.172	38.08
573.367	38.03
573.562	37.89
573.757	37.75
573.952	37.67
574.147	37.62
574.342	37.62
574.537	37.6
574.732	37.53
574.927	37.47
575.121	37.42
575.316	37.53
575.511	37.79
575.706	38.08
575.901	38.21
576.096	38.3
576.29	38.29
576.485	37.89
576.68	37.81
576.875	38.12
577.069	37.98
577.264	38.12
577.459	38.18
577.654	38.39
577.848	38.31
578.043	38.35
578.238	38.49
578.432	38.54
578.627	38.9
578.821	39.01
579.016	38.87
579.21	39.11
579.405	39.09
579.6	39.07
579.794	38.55
579.989	38.47
580.183	38.15
580.378	38.23
580.572	38.27
580.766	38.33
580.961	38.29
581.155	38.17
581.35	38.3
581.544	38.3
581.738	38.36
581.933	38.64
582.127	38.77
582.321	39.11
582.516	38.7
582.71	38.59
582.904	38.34
583.099	38.38
583.293	38.48
583.487	38.09
583.681	38.1
583.875	37.92
584.07	37.79
584.264	37.8
584.458	37.99
584.652	38.06
584.846	38.38
585.04	38.37
585.234	38.4
585.428	38.54
585.623	39.09
585.817	39.39
586.011	39.57
586.205	39.65
586.399	39.52
586.593	39.2
586.787	39.52
586.981	39.42
587.174	39.38
587.368	39.2
587.562	38.99
587.756	38.81
587.95	38.72
588.144	38.7
588.338	38.74
588.532	39
588.725	39.21
588.919	39.16
589.113	39.12
589.307	39.32
589.501	39.42
589.694	39.62
589.888	39.71
590.082	39.58
590.275	39.77
590.469	39.63
590.663	39.35
590.856	39.45
591.05	39.34
591.244	39.24
591.437	39.43
591.631	39.31
591.824	39.22
592.018	39.26
592.212	39.28
592.405	39.4
592.599	39.49
592.792	39.55
592.986	39.55
593.179	39.74
593.372	39.84
593.566	39.84
593.759	40.05
593.953	40.1
594.146	39.91
594.339	39.93
594.533	39.74
594.726	39.77
594.92	39.97
595.113	39.76
595.306	39.67
595.499	39.69
595.693	39.62
595.886	39.54
596.079	39.46
596.272	39.51
596.466	39.46
596.659	39.45
596.852	39.48
597.045	39.69
597.238	39.72
597.431	39.73
597.624	39.76
597.818	39.78
598.011	39.77
598.204	39.82
598.397	39.92
598.59	40.1
598.783	40.05
598.976	40.22
599.169	39.92
599.362	39.97
599.555	39.95
599.748	40.11
599.941	39.8
600.134	40.02
600.326	40.12
600.519	39.88
600.712	39.68
600.905	39.71
601.098	39.44
601.291	39.32
601.483	39.42
601.676	39.54
601.869	39.51
602.062	39.74
602.255	39.45
602.447	39.4
602.64	39.65
602.833	39.67
603.025	39.74
603.218	39.78
603.411	40.12
603.603	40.21
603.796	40.17
603.989	40.22
604.181	40.29
604.374	40.51
604.566	40.55
604.759	40.37
604.951	40.53
605.144	40.48
605.336	40.46
605.529	40.34
605.721	40.15
605.914	40.31
606.106	40.21
606.299	39.97
606.491	39.86
606.683	39.75
606.876	39.9
607.068	39.74
607.26	39.76
607.453	39.99
607.645	39.92
607.837	39.83
608.03	39.75
608.222	39.86
608.414	40.13
608.606	40.17
608.799	40.28
608.991	40.23
609.183	40.46
609.375	40.63
609.567	40.95
609.759	41.01
609.952	41.41
610.144	41.61
610.336	41.84
610.528	41.83
610.72	42.09
610.912	42.33
611.104	42.54
611.296	42.68
611.488	42.63
611.68	42.46
611.872	42.38
612.064	42.33
612.256	41.97
612.448	41.67
612.64	41.61
612.832	41.37
613.023	41.15
613.215	41.17
613.407	40.87
613.599	40.87
613.791	40.54
613.983	40.35
614.174	40.36
614.366	40.71
614.558	40.9
614.75	40.74
614.941	40.83
615.133	40.73
615.325	40.36
615.516	40.58
615.708	40.71
615.9	40.86
616.091	41.17
616.283	40.89
616.475	40.72
616.666	40.52
616.858	40.68
617.049	40.62
617.241	40.65
617.432	40.86
617.624	40.78
617.815	40.71
618.007	40.55
618.198	40.54
618.39	40.4
618.581	40.11
618.773	39.8
618.964	40.01
619.155	40.32
619.347	40.24
619.538	40.35
619.729	40.4
619.921	40.35
620.112	40.56
620.303	40.47
620.494	40.64
620.686	40.85
620.877	41.07
621.068	41.01
621.259	40.62
621.451	40.77
621.642	40.7
621.833	40.45
622.024	40.46
622.215	40.25
622.406	40.33
622.597	40.38
622.788	40.55
622.98	40.46
623.171	40.84
623.362	40.97
623.553	40.68
623.744	41.06
623.935	41.3
624.126	41.34
624.317	41.28
624.508	41.61
624.698	41.78
624.889	41.43
625.08	41.38
625.271	40.94
625.462	41.02
625.653	41.37
625.844	40.95
626.034	40.89
626.225	40.75
626.416	40.82
626.607	40.51
626.798	40.45
626.988	40.84
627.179	40.9
627.37	41.04
627.56	40.8
627.751	40.91
627.942	40.98
628.132	41.05
628.323	41.04
628.514	41.2
628.704	41.17
628.895	40.81
629.085	40.48
629.276	40.94
629.466	41.02
629.657	41.14
629.847	41.01
630.038	41
630.228	40.83
630.419	40.94
630.609	40.91
630.8	40.93
630.99	41.36
631.181	41.47
631.371	40.93
631.561	40.85
631.752	40.92
631.942	40.92
632.132	41.26
632.323	41.36
632.513	41.59
632.703	41.62
632.893	41.7
633.084	41.66
633.274	41.65
633.464	41.63
633.654	41.55
633.844	41.36
634.034	41.1
634.225	40.65
634.415	40.78
634.605	40.57
634.795	40.47
634.985	40.41
635.175	40.3
635.365	40.23
635.555	40.17
635.745	40.24
635.935	40.28
636.125	40.5
636.315	40.59
636.505	40.5
636.695	40.52
636.885	40.51
637.075	40.57
637.265	41.03
637.455	40.98
637.644	41.35
637.834	41.07
638.024	41.09
638.214	40.98
638.404	40.9
638.593	40.84
638.783	40.77
638.973	40.66
639.163	40.61
639.352	40.13
639.542	40.35
639.732	40.12
639.921	40.01
640.111	40.19
640.301	40.19
640.49	40.04
640.68	39.87
640.87	39.76
641.059	39.91
641.249	40.17
641.438	39.97
641.628	39.89
641.817	40.01
642.007	40.17
642.196	40.63
642.386	40.83
642.575	40.76
642.764	40.88
642.954	41.3
643.143	41.48
643.333	41.49
643.522	41.61
643.711	41.53
643.901	41.49
644.09	41.53
644.279	40.77
644.469	40.72
644.658	41.09
644.847	41.25
645.036	41.18
645.226	40.85
645.415	40.97
645.604	40.89
645.793	41.04
645.982	41.25
646.171	40.9
646.361	41.31
646.55	41.19
646.739	41.04
646.928	40.8
647.117	40.71
647.306	40.69
647.495	40.29
647.684	40.54
647.873	40.39
648.062	40.06
648.251	40.69
648.44	40.29
648.629	40.56
648.818	40.91
649.007	41.33
649.196	41.13
649.384	41.07
649.573	41.24
649.762	41.51
649.951	41.68
650.14	41.63
650.328	41.27
650.517	41.39
650.706	40.8
650.895	40.19
651.083	40.07
651.272	40.21
651.461	40.42
651.65	40.09
651.838	39.99
652.027	39.99
652.216	40.19
652.404	40.68
652.593	40.61
652.781	40.45
652.97	40.82
653.158	40.35
653.347	40.49
653.535	40.77
653.724	41.33
653.912	41.36
654.101	41.31
654.289	41.32
654.478	41.21
654.666	41.08
654.855	41.9
655.043	41.71
655.231	41.94
655.42	41.95
655.608	41.75
655.796	41.55
655.985	41.79
656.173	41.72
656.361	41.93
656.55	41.84
656.738	42.05
656.926	41.7
657.114	41.62
657.302	41.94
657.491	41.41
657.679	41.02
657.867	40.79
658.055	40.49
658.243	40.04
658.431	39.82
658.619	39.86
658.807	39.88
658.996	39.63
659.184	39.46
659.372	39.01
659.56	39.18
659.748	39.24
659.936	39.34
660.124	39
660.311	39.64
660.499	39.78
660.687	39.59
660.875	39.5
661.063	39.77
661.251	40.57
661.439	40.76
661.627	41.04
661.814	41.53
662.002	41.67
662.19	41.84
662.378	41.72
662.565	41.1
662.753	41.05
662.941	41.65
663.129	41.57
663.316	40.91
663.504	40.91
663.692	40.77
663.879	40.77
664.067	40.77
664.254	41.15
664.442	40.91
664.63	41.29
664.817	41.33
665.005	40.58
665.192	40.66
665.38	40.96
665.567	41.29
665.755	41.55
665.942	40.64
666.13	40.15
666.317	39.83
666.504	40.11
666.692	40.33
666.879	40.67
667.067	41.02
667.254	40.9
667.441	40.61
667.629	40.56
667.816	40.36
668.003	40.59
668.19	40.99
668.378	41.21
668.565	40.91
668.752	41.05
668.939	40.9
669.127	40.76
669.314	40.7
669.501	40.68
669.688	40.43
669.875	40.17
670.062	40.42
670.249	40.6
670.436	40.56
670.623	40.64
670.81	40.6
670.997	40.53
671.184	40.55
671.371	40.77
671.558	40.77
671.745	40.95
671.932	41.33
672.119	41.12
672.306	40.41
672.493	40.64
672.68	41.08
672.867	40.63
673.054	40.85
673.24	40.85
673.427	40.57
673.614	40.72
673.801	40.68
673.988	40.39
674.174	40.42
674.361	40.79
674.548	40.46
674.734	40.11
674.921	40.39
675.108	40.13
675.294	39.75
675.481	39.73
675.668	39.84
675.854	39.81
676.041	40.11
676.227	40.33
676.414	40.42
676.601	40.54
676.787	40.27
676.974	40.05
677.16	39.98
677.347	40.45
677.533	40.5
677.719	40.47
677.906	40.18
678.092	39.65
678.279	39.69
678.465	39.54
678.651	39.28
678.838	39.79
679.024	40.33
679.21	40.6
679.397	40.56
679.583	40.26
679.769	40
679.955	40.29
680.142	40.49
680.328	40.62
680.514	40.62
680.7	40.7
680.886	40.54
681.073	40.37
681.259	40.05
681.445	39.83
681.631	40
681.817	39.99
682.003	39.78
682.189	40
682.375	39.89
682.561	40.28
682.747	40.21
682.933	39.93
683.119	39.75
683.305	39.94
683.491	39.71
683.677	40.19
683.863	40.63
684.049	40.06
684.235	39.98
684.42	39.76
684.606	39.58
684.792	39.61
684.978	39.6
685.164	39.7
685.349	39.52
685.535	40.46
685.721	40.54
685.907	40.7
686.092	41.92
686.278	41.4
686.464	41.65
686.649	41.25
686.835	41.52
687.021	41.56
687.206	41.42
687.392	41.41
687.577	41.27
687.763	41.08
687.948	41.06
688.134	40.69
688.319	40.87
688.505	40.76
688.69	40.85
688.876	40.81
689.061	41.4
689.247	41.22
689.432	41.53
689.618	41.69
689.803	41.65
689.988	41.39
690.174	41.07
690.359	40.71
690.544	40.79
690.73	40.56
690.915	40.54
691.1	40.1
691.285	40.18
691.471	39.81
691.656	40.06
691.841	39.97
692.026	39.73
692.211	39.08
692.396	39.52
692.582	39.13
692.767	39.93
692.952	39.66
693.137	39.8
693.322	40.05
693.507	40.13
693.692	39.22
693.877	39.55
694.062	40.02
694.247	41.51
694.432	42
694.617	42.28
694.802	41.72
694.987	42.12
695.172	41.81
695.357	42.28
695.541	42.53
695.726	42.61
695.911	42.23
696.096	42.37
696.281	41.48
696.466	41.2
696.65	41.93
696.835	41.97
697.02	41.98
697.204	41.84
697.389	41.27
697.574	40.92
697.759	40.89
697.943	40.94
698.128	40.52
698.312	40.9
698.497	41.07
698.682	40.46
698.866	40.45
699.051	40.2
699.235	40.32
699.42	40.48
699.604	40.55
699.789	40.65
699.973	40.44
700.158	40.59
700.342	40.35
700.527	40.21
700.711	40.45
700.895	40.4
701.08	40.53
701.264	40.44
701.448	40.67
701.633	40.68
701.817	39.99
702.001	40.13
702.186	39.81
702.37	40.19
702.554	39.41
702.738	39.54
702.923	39.68
703.107	38.86
703.291	38.88
703.475	38.2
703.659	37.99
703.843	38.43
704.027	39.07
704.212	39.15
704.396	39.04
704.58	39.64
704.764	39.8
704.948	39.27
705.132	39.97
705.316	40.38
705.5	40.63
705.684	41.24
705.868	41.79
706.052	41.73
706.235	41.96
706.419	42
706.603	42.79
706.787	41.98
706.971	42.33
707.155	42.92
707.339	42.27
707.522	42.5
707.706	42.56
707.89	42.41
708.074	42.03
708.257	42.62
708.441	42.67
708.625	42.03
708.808	42.7
708.992	42.61
709.176	41.95
709.359	42.05
709.543	42.54
709.727	42.41
709.91	41.71
710.094	41.75
710.277	41.37
710.461	41.29
710.644	41.21
710.828	40.85
711.011	40.97
711.195	40.67
711.378	41.09
711.562	40.28
711.745	39.44
711.928	40.04
712.112	40.37
712.295	39.75
712.478	39.73
712.662	39.38
712.845	39.14
713.028	39.08
713.212	39.68
713.395	39.3
713.578	38.74
713.761	39.39
713.945	39.65
714.128	38.95
714.311	39.66
714.494	39.8
714.677	39.53
714.86	39.91
715.043	39.5
715.227	39.69
715.41	40.05
715.593	41.02
715.776	40.98
715.959	41.22
716.142	41.26
716.325	41.16
716.508	40.37
716.691	41.13
716.874	40.75
717.057	41.04
717.239	40.17
717.422	40.15
717.605	40.26
717.788	40.35
717.971	39.52
718.154	39.6
718.337	39.39
718.519	40.5
718.702	40.9
718.885	42
719.068	42.26
719.25	42.62
719.433	42.43
719.616	41.42
719.798	41.29
719.981	40.94
720.164	41.02
720.346	41.45
720.529	40.63
720.712	40.11
720.894	39.99
721.077	38.98
721.259	38.44
721.442	37.75
721.624	37.83
721.807	37.99
721.989	38.42
722.172	38.72
722.354	38.96
722.537	39.14
722.719	39.26
722.901	37.93
723.084	39.41
723.266	40.61
723.448	41.02
723.631	41.18
723.813	41.98
723.995	41.5
724.178	40.82
724.36	40.03
724.542	39.75
724.724	39.26
724.907	39.38
725.089	39.09
725.271	38.73
725.453	38.94
725.635	38.82
725.817	38.25
725.999	38.51
726.181	39.51
726.364	39.26
726.546	39.73
726.728	40.16
726.91	40.56
727.092	39.81
727.274	39.28
727.456	38.96
727.638	38.85
727.819	38.97
728.001	40.09
728.183	39.47
728.365	40.37
728.547	40.91
728.729	40.03
728.911	39.65
729.093	40.38
729.274	40.83
729.456	40.38
729.638	41.48
729.82	40.96
730.001	40.25
730.183	41.01
730.365	40.33
730.546	39.84
730.728	40.54
730.91	40.84
731.091	39.4
731.273	39.27
731.455	40.25
731.636	38.99
731.818	39.22
731.999	39.46
732.181	39.46
732.362	39.35
732.544	39.23
732.725	39.25
732.907	39.74
733.088	40.59
733.27	41.08
733.451	40.6
733.633	40.87
733.814	41.02
733.995	40.67
734.177	39.38
734.358	39.25
734.539	38.31
734.721	37.21
734.902	37.16
735.083	38.06
735.264	37.28
735.446	37.88
735.627	38.64
735.808	38.36
735.989	37.04
736.17	38.1
736.351	37.8
736.533	39.05
736.714	40.21
736.895	39.3
737.076	38.95
737.257	39.64
737.438	38.7
737.619	37.68
737.8	37.44
737.981	38.93
738.162	37.51
738.343	38.73
738.524	38.85
738.705	38.24
738.886	37.49
739.067	36.07
739.247	35.43
739.428	35.24
739.609	35.56
739.79	35.68
739.971	36.73
740.151	37.42
740.332	36.31
740.513	36.01
740.694	35.95
740.874	36.56
741.055	37.16
741.236	38.04
741.417	37.99
741.597	38.15
741.778	38.5
741.958	37
742.139	37.25
742.32	37.23
742.5	37.07
742.681	38.49
742.861	39.27
743.042	39.48
743.222	39.95
743.403	39.92
743.583	39.98
743.764	39.38
743.944	39.36
744.124	39.95
744.305	40.57
744.485	41.04
744.666	40.34
744.846	38.5
745.026	38.42
745.207	37.52
745.387	38.68
745.567	38.99
745.747	39.92
745.928	41.1
746.108	40.91
746.288	41.18
746.468	40.87
746.648	41.17
746.829	41.95
747.009	42.82
747.189	42.88
747.369	41.85
747.549	41.27
747.729	40.09
747.909	39.41
748.089	38.15
748.269	37.09
748.449	36.48
748.629	36.37
748.809	38.22
748.989	39.14
749.169	39.47
749.349	39.42
749.529	40.25
749.709	41.48
749.889	40.62
750.068	41.07
750.248	41.18
750.428	41.52
750.608	41.31
750.788	40.91
750.967	38.87
751.147	36.74
751.327	38.39
751.507	37.7
751.686	36.53
751.866	37.42
752.046	36.88
752.225	37.52
752.405	38.32
752.585	38.81
752.764	38.38
752.944	38.05
753.123	39.03
753.303	36.72
753.482	36.77
753.662	38.37
753.841	37.76
754.021	37.4
754.2	38.05
754.38	37.14
754.559	37.49
754.739	37.38
754.918	38.49
755.097	38.79
755.277	39.61
755.456	40.53
755.635	39.14
755.815	38.99
755.994	40.06
756.173	38.87
756.352	39.97
756.532	39.68
756.711	38.99
756.89	38.61
757.069	39.06
757.248	39.66
757.427	39.29
757.607	39.3
757.786	40.88
757.965	41.11
758.144	41.02
758.323	39.79
758.502	40.8
758.681	41.62
758.86	42.8
759.039	41.36
759.218	41.19
759.397	41.56
759.576	42.45
759.755	40.88
759.934	41.06
760.113	40.69
760.291	41.37
760.47	39.59
760.649	38.8
760.828	38.96
761.007	40.35
761.186	40.82
761.364	40.54
761.543	40.53
761.722	41.1
761.901	41.09
762.079	41.69
762.258	41.65
762.437	41.33
762.615	41.63
762.794	40.77
762.972	40.94
763.151	40.11
763.33	40
763.508	39.38
763.687	38.89
763.865	38.32
764.044	38.44
764.222	38.03
764.401	38.06
764.579	38.64
764.758	38.62
764.936	38.29
765.114	38.87
765.293	37.89
765.471	37.91
765.65	37.56
765.828	37.77
766.006	37.87
766.184	37.86
766.363	38.66
766.541	38.34
766.719	38.52
766.898	37.92
767.076	36.85
767.254	38.09
767.432	38.74
767.61	40.52
767.788	41.55
767.967	41.33
768.145	40.75
768.323	40.6
768.501	40.39
768.679	40.02
768.857	40.89
769.035	42.13
769.213	42.02
769.391	40.5
769.569	39.01
769.747	37.62
769.925	37.39
770.103	38.14
770.281	37.42
770.459	36.77
770.636	38.52
770.814	38.39
770.992	37.74
771.17	36.36
771.348	36.25
771.525	36.7
771.703	34.99
771.881	35.04
772.059	34.36
772.236	34.1
772.414	33.29
772.592	32.04
772.769	32.12
772.947	33.74
773.125	34.84
773.302	36.26
773.48	36.44
773.657	37.39
773.835	38
774.013	38.13
774.19	37.97
774.368	38.87
774.545	35.38
774.723	33.96
774.9	32.18
775.077	30.54
775.255	30.87
775.432	29.55
775.61	32.23
775.787	30.11
775.964	31.45
776.142	31.99
776.319	33.01
776.496	34.82
776.674	36.51
776.851	36.8
777.028	38.21
777.205	37.06
777.382	37.4
777.56	36.1
777.737	36.85
777.914	35.29
778.091	35.66
778.268	35.58
778.445	36.57
778.622	36.14
778.8	35.55
778.977	35.53
779.154	34.54
779.331	34.77
779.508	34.65
779.685	33.95
779.862	33.48
780.038	33.08
780.215	31.31
780.392	30.8
780.569	30.24
780.746	30.89
780.923	30.71
781.1	31.55
781.277	34.04
781.453	35.13
781.63	36.93
781.807	37.96
781.984	39.67
782.16	41.28
782.337	41.56
782.514	41.93
782.691	40.62
782.867	39.26
783.044	40.52
783.221	38.23
783.397	37.24
783.574	35.24
783.75	36.4
783.927	36.27
784.103	36.06
784.28	37.45
784.456	38.03
784.633	40.05
784.809	41.63
784.986	40.1
785.162	36.57
785.339	36.57
785.515	37.53
785.692	37.29
785.868	34.15
786.044	32.11
786.221	29.76
786.397	26.97
786.573	26.19
786.749	26.38
786.926	26.51
787.102	30.47
787.278	32.2
787.454	34.08
787.631	32.78
787.807	34.39
787.983	36.95
788.159	38
788.335	35.72
788.511	39.74
788.687	39.92
788.863	42.07
789.039	43.45
789.216	40.6
789.392	38.44
789.568	37.84
789.744	39.05
789.919	37.38
790.095	40.14
790.271	44.78
790.447	42.41
790.623	42.96
790.799	43.72
790.975	39.35
791.151	39.71
791.327	43.74
791.502	45.49
791.678	43.24
791.854	42.92
792.03	38.98
792.205	40.46
792.381	39.16
792.557	39.39
792.733	38
792.908	42.22
793.084	42.28
793.259	39.91
793.435	39.15
793.611	42.4
793.786	42.47
793.962	42.66
794.137	40.98
794.313	40.82
794.488	41
794.664	38.93
794.839	36.83
795.015	37.14
795.19	37.86
795.366	37.83
795.541	35.4
795.716	37.37
795.892	36.82
796.067	37.06
796.242	37.96
796.418	35.74
796.593	35.99
796.768	35.06
796.944	36.75
797.119	37.28
797.294	37.38
797.469	38.95
797.644	36.7
797.82	37.15
797.995	36.93
798.17	38.21
798.345	39.22
798.52	37.97
798.695	38.15
798.87	37.07
799.045	36.11
799.22	35.85
799.395	35.22
799.57	40.76
799.745	40.9
799.92	38.73
800.095	37
800.27	34.07
800.445	35.06
800.62	36.91
800.795	36.64
800.97	35.68
801.145	36.52
801.319	36.33
801.494	31.82
801.669	32.73
801.844	35.23
802.018	35.31
802.193	38.38
802.368	39.34
802.543	40.2
802.717	41.03
802.892	41.16
803.067	42.6
803.241	45.69
803.416	48.82
803.59	46.79
803.765	46.06
803.94	46.25
804.114	45.97
804.289	43.27
804.463	39.88
804.638	38.52
804.812	38.24
804.986	38.41
805.161	35.68
805.335	32.6
805.51	33.19
805.684	31.53
805.858	33.21
806.033	32.48
806.207	35.75
806.381	40.2
806.556	43.22
806.73	41.45
806.904	40.53
807.078	39.87
807.253	40.25
807.427	39.98
807.601	40.63
807.775	40.95
807.949	41.09
808.123	38.69
808.298	38.55
808.472	37.03
808.646	37.89
808.82	37.73
808.994	36.8
809.168	36.25
809.342	38.93
809.516	41.8
809.69	41.24
809.864	39.81
810.038	44.14
810.212	39.66
810.385	36.15
810.559	36.5
810.733	32.12
810.907	30.83
811.081	32.13
811.255	30.36
811.428	28.93
811.602	27.59
811.776	30.18
811.95	25.65
812.123	31.32
812.297	31.66
812.471	34.22
812.644	38.15
812.818	39.82
812.992	34.98
813.165	35.07
813.339	37.79
813.512	38.07
813.686	41.96
813.86	45.45
814.033	42.43
814.207	44.68
814.38	47.66
814.554	50.45
814.727	50.52
814.9	51.48
815.074	55.09
815.247	47.99
815.421	47.52
815.594	40.73
815.767	38.11
815.941	34.45
816.114	31
816.287	31.92
816.46	25.35
816.634	23.41
816.807	24.95
816.98	23
817.153	25.98
817.327	23.06
817.5	26.41
817.673	26.92
817.846	28.65
818.019	33.3
818.192	27.92
818.365	33.45
818.538	38.73
818.711	40.29
818.884	37.28
819.057	35.1
819.23	36.75
819.403	35.5
819.576	32.66
819.749	33.85
819.922	34.67
820.095	34.71
820.268	33.76
820.441	30.89
820.614	32.3
820.786	32.51
820.959	34.32
821.132	33.37
821.305	33.8
821.477	35.55
821.65	35.18
821.823	34.85
821.996	35.06
822.168	35.38
822.341	36.25
822.514	35.99
822.686	36.5
822.859	37.22
823.031	37.62
823.204	37.64
823.376	37.66
823.549	37.96
823.722	37.79
823.894	38.62
824.067	38.8
824.239	38.27
824.411	38.81
824.584	38.83
824.756	38.37
824.929	38.66
825.101	38.72
825.273	38.41
825.446	38.5
825.618	39.32
825.79	38.47
825.963	37.6
826.135	37.76
826.307	37.34
826.479	36.55
826.652	36.59
826.824	36.17
826.996	35.92
827.168	36.25
827.34	36.36
827.512	36.11
827.684	35.4
827.856	35.29
828.029	35.14
828.201	35.13
828.373	35.94
828.545	35.31
828.717	35.14
828.889	35.15
829.061	34.3
829.232	33.74
829.404	33.14
829.576	33.68
829.748	34.71
829.92	36.22
830.092	36.7
830.264	34.92
830.436	35.96
830.607	35.7
830.779	34.5
830.951	35.2
831.123	34.2
831.294	34.46
831.466	34.63
831.638	31.72
831.809	29.73
831.981	28.47
832.153	30.36
832.324	28.19
832.496	29.56
832.667	30.23
832.839	30.6
833.011	32.38
833.182	32.44
833.354	30.03
833.525	32.52
833.697	33.14
833.868	32.43
834.039	35.01
834.211	38.19
834.382	37.08
834.554	37.5
834.725	38.04
834.896	37.16
835.068	36.49
835.239	36.81
835.41	36.86
835.581	36.5
835.753	36.59
835.924	34.29
836.095	34.5
836.266	35.17
836.438	35.79
836.609	34.54
836.78	34.83
836.951	36.37
837.122	38.37
837.293	37.57
837.464	38.61
837.635	36.28
837.806	36.53
837.977	33.45
838.148	32.02
838.319	28.1
838.49	30.83
838.661	34.13
838.832	33.16
839.003	28.2
839.174	24.46
839.345	22.03
839.516	21.02
839.687	11.79
839.857	16.28
840.028	17.99
840.199	22.93
840.37	22.15
840.54	24.45
840.711	28.28
840.882	31.05
841.053	33.21
841.223	33.2
841.394	41.7
841.564	44.6
841.735	43.17
841.906	42.76
842.076	41.28
842.247	36.7
842.417	26.62
842.588	23.02
842.758	18.38
842.929	17.39
843.099	11.62
843.27	-0.91
843.44	5.62
843.611	3
843.781	-1.32
843.951	3.78
844.122	6.53
844.292	10.37
844.462	3.13
844.633	14.96
844.803	24.53
844.973	34.89
845.144	36.07
845.314	28.79
845.484	31.95
845.654	41.88
845.824	38.65
845.995	42.23
846.165	43.26
846.335	55.42
846.505	43.32
846.675	28.31
846.845	-5.38
847.015	-1.52
847.185	10.56
847.355	-3.15
847.525	2.01
847.695	-7.37
847.865	-28.53
848.035	-49.17
848.205	-75.07
848.375	-48.93
848.545	-58.27
848.715	-38.13
848.884	-42.21
849.054	-57.26
849.224	-50.24
849.394	-89.47
849.564	-52.33
849.733	-13.19
849.903	-6.26
850.073	7.87
850.243	4.23
850.412	12.35
850.582	8.47
850.752	-3.16
850.921	8.23
851.091	8.62
851.26	21.43
851.43	18.72
851.599	4.48
851.769	9.44
851.939	-3.61
852.108	-31.97
852.278	-35.37
852.447	-34.98
852.616	-30.17
852.786	-38.15
852.955	-37.47
853.125	-38.31
853.294	-46.21
853.463	-37.61
853.633	-20.15
853.802	-21.42
853.971	2.77
854.141	-3.89
854.31	-2.96
854.479	-20
854.648	-30.91
854.818	-60.7
854.987	-66.62
855.156	-61.37
855.325	-54.14
855.494	-84.95
855.663	-71.22
855.832	-131.77
856.001	-114.94
856.171	-58.3
856.34	-33.83
856.509	-56.75
856.678	-19.21
856.847	-2.22
857.016	-7.04
857.185	-17.41
857.353	15.64
857.522	-6.68
857.691	27.22
857.86	25.77
858.029	21.82
858.198	19.34
858.367	24.54
858.535	14.96
858.704	22.98
858.873	25
859.042	38.61
859.21	11.99
859.379	27.05
859.548	3.7
859.717	4.44
859.885	-6.5
860.054	-16.57
860.222	-26.22
860.391	-34.02
860.56	-27.09
860.728	-27.01
860.897	-20.29
861.065	-8.68
861.234	-11.5
861.402	-5.91
861.571	-7.34
861.739	-2.17
861.908	22.69
862.076	24.29
862.244	35.85
862.413	23.86
862.581	20.55
862.749	-22.31
862.918	-59.77
863.086	-87.51
863.254	-89.14
863.423	-239.27
863.591	-211.15
863.759	-450.59
863.927	-387.21
864.096	-1539.9
864.264	395.41
864.432	550.86
864.6	-771.66
864.768	-145.06
864.936	42.99
865.104	-5.11
865.272	34.95
865.44	15.1
865.608	26
865.776	-47.25
865.944	-63.43
866.112	-6.6
866.28	-9.45
866.448	2.43
866.616	2.93
866.784	-11.48
866.952	-3.75
867.12	2.54
867.288	16.7
867.455	15.11
867.623	37.27
867.791	42.49
867.959	28.52
868.127	49.18
868.294	54.92
868.462	30.56
868.63	40.58
868.797	47.24
868.965	23.45
869.133	58.68
869.3	95.16
869.468	19.01
869.636	53.99
869.803	71.48
869.971	32.23
870.138	9.59
870.306	25.23
870.473	23.4
870.641	12.51
870.808	14.73
870.975	-5.33
871.143	10.98
871.31	10.49
871.478	-27.84
871.645	9.76
871.812	-5.96
871.98	-29.9
872.147	-19.69
872.314	43.05
872.482	68.71
872.649	101.66
872.816	115.69
872.983	108.65
873.15	61.95
873.318	42.23
873.485	60.25
873.652	102.18
873.819	69.8
873.986	41.76
874.153	23.48
874.32	7.47
874.487	9.29
874.654	-5.02
874.821	10.96
874.988	27.45
875.155	48.74
875.322	45.75
875.489	41.63
875.656	49.88
875.823	61.5
875.99	34.89
876.157	43.57
876.324	51.08
876.49	54.05
876.657	45.77
876.824	28.97
876.991	8.04
877.157	-6.24
877.324	10.4
877.491	16.45
877.658	13
877.824	4.21
877.991	13.24
878.157	-1.27
878.324	-8.94
878.491	4.54
878.657	11.74
878.824	9.95
878.99	13.42
879.157	-3.86
879.323	1.18
879.49	-3.46
879.656	30.33
879.823	17.97
879.989	27
880.156	7
880.322	10.93
880.488	-0.18
880.655	5.36
880.821	-5.42
880.987	23.36
881.154	14.33
881.32	2.48
881.486	1.16
881.652	6.92
881.819	11.68
881.985	19.97
882.151	21.8
882.317	26.13
882.483	21.69
882.649	24.03
882.816	20.4
882.982	24.52
883.148	29.68
883.314	29.83
883.48	29.19
883.646	29.66
883.812	31.83
883.978	31.49
884.144	31.49
884.31	33.92
884.476	35.49
884.642	34.97
884.807	36.09
884.973	35.38
885.139	37.35
885.305	37.69
885.471	37.73
885.637	38.43
885.802	37.84
885.968	37.79
886.134	38
886.3	36.43
886.465	37.28
886.631	34.93
886.797	32.72
886.962	31.34
887.128	29.78
887.293	26.94
887.459	19.04
887.625	19.18
887.79	19.73
887.956	24.57
888.121	26.46
888.287	27.92
888.452	27.88
888.618	39.16
888.783	39.81
