Data from 2938730__Reflection_01.txt Node
Date: Sun Mar 15 18:57:29 EDT 2015
User: robert
Spectrometer: USB4E03002
Autoset integration time: false
Trigger mode: 4
Integration Time (sec): 1.000000E-1
Scans to average: 10
Electric dark correction enabled: false
Nonlinearity correction enabled: false
Boxcar width: 5
Stray light correction enabled: false
XAxis mode: Wavelengths
Stop averaging: false
Number of Pixels in Spectrum: 3648
>>>>>Begin Spectral Data<<<<<
177.575	79.74
177.794	89.39
178.014	100.19
178.233	105.08
178.452	93.35
178.672	114.92
178.891	115.99
179.11	125.47
179.33	67.71
179.549	900
179.768	282.67
179.987	103.41
180.207	69.01
180.426	26.57
180.645	13.87
180.864	70.73
181.084	54.01
181.303	191.16
181.522	380
181.741	211.64
181.96	110.89
182.179	164
182.398	7075
182.618	317.39
182.837	1077.55
183.056	284.43
183.275	286.99
183.494	246.91
183.713	110.42
183.932	99.2
184.151	129.69
184.37	133.67
184.589	158.94
184.808	105.9
185.027	128.57
185.246	-31.37
185.465	395.24
185.684	38.55
185.903	41.67
186.122	97.73
186.341	174.07
186.56	19.88
186.779	-124.04
186.998	-39.91
187.216	11.22
187.435	5.51
187.654	-5.8
187.873	-75.15
188.092	-75.6
188.311	-51.11
188.53	-95.74
188.748	-96.55
188.967	1700
189.186	101.74
189.405	116.12
189.623	147.3
189.842	148.08
190.061	123.33
190.28	148.64
190.498	142.97
190.717	125.68
190.936	261.39
191.154	422.58
191.373	-289.74
191.592	-154.17
191.81	-658.18
192.029	251.49
192.248	323.03
192.466	355.94
192.685	157.14
192.904	136.31
193.122	161.38
193.341	106.89
193.559	113.13
193.778	91.72
193.996	92.25
194.215	42.09
194.433	72.3
194.652	84.36
194.87	89.29
195.089	37.44
195.307	10.05
195.526	19.93
195.744	8.38
195.963	14.29
196.181	13.43
196.399	25.15
196.618	55.16
196.836	23.53
197.055	0.55
197.273	-30.49
197.491	-86.16
197.71	-315.91
197.928	55.07
198.146	-170
198.365	-69.59
198.583	-53.01
198.801	-190.32
199.019	81.48
199.238	150.28
199.456	1577.78
199.674	886.21
199.892	404.88
200.111	333.33
200.329	266.9
200.547	340.15
200.765	161.78
200.983	736.36
201.202	-272.09
201.42	-197.5
201.638	-15850
201.856	327.63
202.074	336.36
202.292	164.58
202.51	118.16
202.728	58.93
202.946	41.94
203.165	193.55
203.383	114.89
203.601	187.67
203.819	377.91
204.037	131.85
204.255	200.7
204.473	380
204.691	-136.28
204.909	-128.24
205.127	-98.6
205.345	-135.74
205.562	-198.61
205.78	-54.29
205.998	-31.09
206.216	-43.16
206.434	2.72
206.652	12.08
206.87	-6.53
207.088	-34.02
207.306	-10.89
207.523	-106.37
207.741	-73.36
207.959	-68.88
208.177	-129.22
208.395	-369.3
208.612	-222.01
208.83	-330.06
209.048	-252.08
209.266	-265.57
209.483	-418.38
209.701	-372.14
209.919	-191.86
210.136	-173.44
210.354	-114.03
210.572	-106.49
210.79	-47.24
211.007	-62.88
211.225	-131.75
211.442	-188.02
211.66	-50
211.878	12.09
212.095	72.25
212.313	68.36
212.53	95.87
212.748	86.47
212.966	96.09
213.183	50.26
213.401	48.8
213.618	44.17
213.836	44.71
214.053	49.05
214.271	33.89
214.488	20.62
214.705	22.09
214.923	-24.12
215.14	-32.4
215.358	-57.94
215.575	-44.53
215.793	-73.04
216.01	-29.4
216.227	-24.65
216.445	-35.41
216.662	-26.55
216.879	-5.13
217.097	-4.44
217.314	22.75
217.531	7.38
217.749	16.55
217.966	24.73
218.183	24.92
218.4	22.17
218.618	30.19
218.835	24.46
219.052	23.47
219.269	4.9
219.487	-7.14
219.704	-8.06
219.921	-6.72
220.138	-26.43
220.355	-24.11
220.572	-30.66
220.79	-31.98
221.007	-37.61
221.224	-52.96
221.441	-48.23
221.658	-52.85
221.875	-45.99
222.092	-57.73
222.309	-40.72
222.526	-28.11
222.743	-51.1
222.96	-41.75
223.177	-31.41
223.394	-42.07
223.611	-36.08
223.828	-32.15
224.045	-25.95
224.262	-32.29
224.479	-29.48
224.696	-22.35
224.913	-26.2
225.13	-17.83
225.347	-16.76
225.564	-14.23
225.781	-8.61
225.997	-8.44
226.214	-11.53
226.431	-5.38
226.648	-3.41
226.865	-3.91
227.082	-3.89
227.298	-2.17
227.515	-1.19
227.732	-1.71
227.949	-3.21
228.165	-3.51
228.382	-3.1
228.599	-2.06
228.816	-1.02
229.032	-0.27
229.249	1.13
229.466	0.47
229.682	-0.79
229.899	-1.47
230.116	-0.75
230.332	-0.91
230.549	-0.3
230.765	0.26
230.982	-1.52
231.199	-3.38
231.415	-3.82
231.632	-6.1
231.848	-6.75
232.065	-5.85
232.281	-3.89
232.498	-5.51
232.714	-5.99
232.931	-6.85
233.147	-7.8
233.364	-7.3
233.58	-10.76
233.797	-11.41
234.013	-9.58
234.23	-9.44
234.446	-8.74
234.662	-9.52
234.879	-10.21
235.095	-7.6
235.312	-6.51
235.528	-6.27
235.744	-6.73
235.961	-6.29
236.177	-7.83
236.393	-7.45
236.61	-9.51
236.826	-8.13
237.042	-9.62
237.258	-11.78
237.475	-14.18
237.691	-16.84
237.907	-18.39
238.123	-16.48
238.339	-14.72
238.556	-14.02
238.772	-13.98
238.988	-12.36
239.204	-13.7
239.42	-11.84
239.636	-8.53
239.853	-7.36
240.069	-6.86
240.285	-4.86
240.501	-4.39
240.717	-3.34
240.933	-2.19
241.149	-2.41
241.365	-1.53
241.581	-0.7
241.797	-0.11
242.013	-0.34
242.229	-0.02
242.445	0.04
242.661	-0.25
242.877	0.16
243.093	-0.24
243.309	-0.64
243.525	-0.59
243.741	-0.45
243.957	0.03
244.173	0.3
244.388	-0.18
244.604	0.07
244.82	-0.05
245.036	0.68
245.252	0.42
245.468	0.61
245.683	1.55
245.899	1.67
246.115	1.27
246.331	0.5
246.547	0.09
246.762	0.86
246.978	1.06
247.194	1.46
247.409	1.24
247.625	1.38
247.841	1.45
248.057	1.47
248.272	1.3
248.488	2.02
248.703	2.2
248.919	2.58
249.135	1.69
249.35	1.5
249.566	1.51
249.782	1.46
249.997	1.11
250.213	1.52
250.428	0.1
250.644	-0.14
250.859	-1.15
251.075	-0.58
251.29	-0.76
251.506	0.91
251.721	1.09
251.937	0.46
252.152	0.3
252.368	0.47
252.583	0.79
252.798	1.78
253.014	1.68
253.229	1.58
253.445	1.1
253.66	0.48
253.875	0.28
254.091	-0.34
254.306	-1.24
254.521	-0.93
254.737	-0.17
254.952	-1.38
255.167	-2.91
255.383	-1.28
255.598	-0.83
255.813	0.4
256.028	1.03
256.244	1.45
256.459	1.62
256.674	3.01
256.889	2.97
257.104	1.88
257.32	1.56
257.535	2.07
257.75	1.63
257.965	1.36
258.18	1.08
258.395	0.74
258.61	0.27
258.826	0.34
259.041	0.44
259.256	0.27
259.471	0.38
259.686	0.86
259.901	1.1
260.116	1.13
260.331	1.37
260.546	1.21
260.761	1.4
260.976	1.15
261.191	0.91
261.406	0.63
261.621	0.69
261.836	0.58
262.05	-0.06
262.265	-0.42
262.48	-0.56
262.695	-1.25
262.91	-0.94
263.125	-1.49
263.34	-1.13
263.555	-0.62
263.769	-0.42
263.984	-0.91
264.199	-0.84
264.414	-1.2
264.629	-0.9
264.843	-0.54
265.058	-0.55
265.273	-0.76
265.488	-0.08
265.702	0.02
265.917	-0.41
266.132	0.25
266.346	0.71
266.561	0.54
266.776	0.97
266.99	0.53
267.205	0.74
267.42	0.87
267.634	0.96
267.849	0.7
268.063	0.72
268.278	0.45
268.492	0.7
268.707	0.42
268.922	0.29
269.136	-0.14
269.351	-0.2
269.565	-0.66
269.78	-0.88
269.994	-0.83
270.209	-0.95
270.423	-0.49
270.637	-0.46
270.852	-1.29
271.066	-1.09
271.281	-0.67
271.495	-0.42
271.709	-0.17
271.924	-0.57
272.138	-0.33
272.353	-0.58
272.567	-0.39
272.781	-0.82
272.996	-0.17
273.21	-0.13
273.424	-0.15
273.638	-0.08
273.853	0.26
274.067	0.44
274.281	0.74
274.495	0.5
274.71	0.68
274.924	0.55
275.138	0.7
275.352	0.12
275.566	-0.3
275.781	-0.38
275.995	-0.99
276.209	-1.49
276.423	-1.46
276.637	-2.01
276.851	-1.42
277.065	-1.24
277.279	-0.8
277.493	-0.56
277.707	-0.28
277.921	0.04
278.135	0.5
278.349	0.78
278.563	0.89
278.777	1.26
278.991	1.4
279.205	1.3
279.419	0.42
279.633	0.44
279.847	-0.24
280.061	-0.14
280.275	0.68
280.489	0.86
280.703	0.47
280.917	0.75
281.131	0.28
281.344	0.91
281.558	0.46
281.772	1.17
281.986	0.75
282.2	1.3
282.414	1.6
282.627	0.96
282.841	0.28
283.055	0.84
283.269	0.65
283.482	0.27
283.696	0.17
283.91	0.28
284.123	-0.01
284.337	0.25
284.551	0.4
284.764	-0.26
284.978	-0.08
285.192	0.4
285.405	0.59
285.619	0.46
285.833	0.86
286.046	1.17
286.26	1.05
286.473	1.14
286.687	1.04
286.9	0.92
287.114	1.32
287.327	1.33
287.541	1.24
287.754	0.72
287.968	0.77
288.181	0.49
288.395	-0.04
288.608	0.33
288.822	-0.15
289.035	-0.14
289.248	-0.37
289.462	-0.39
289.675	-0.4
289.889	-0.2
290.102	-0.45
290.315	-0.53
290.529	-0.54
290.742	-0.41
290.955	-0.36
291.169	0.43
291.382	0.25
291.595	0.44
291.808	0.23
292.022	0.14
292.235	-0.23
292.448	0.45
292.661	0.55
292.875	0.66
293.088	0.88
293.301	0.84
293.514	0.33
293.727	0.81
293.94	0.79
294.153	1.27
294.367	1.43
294.58	1.42
294.793	1.36
295.006	1.65
295.219	1.63
295.432	1.74
295.645	1.69
295.858	2.03
296.071	1.7
296.284	1.74
296.497	1.49
296.71	1.44
296.923	1.7
297.136	1.63
297.349	1.52
297.562	1.7
297.775	1.64
297.988	1.51
298.201	1.53
298.414	1.77
298.626	1.95
298.839	2.25
299.052	2.42
299.265	2.28
299.478	2.28
299.691	2.07
299.903	1.92
300.116	1.59
300.329	1.81
300.542	1.62
300.755	1.36
300.967	0.92
301.18	0.66
301.393	0.85
301.605	1.03
301.818	0.94
302.031	1.46
302.243	1.67
302.456	2.06
302.669	2.05
302.881	1.97
303.094	2.32
303.307	2.49
303.519	2.97
303.732	2.57
303.944	2.4
304.157	2.85
304.37	2.74
304.582	2.82
304.795	2.75
305.007	2.86
305.22	3.72
305.432	3.77
305.645	4.04
305.857	3.63
306.069	3.98
306.282	4.01
306.494	4.05
306.707	4.01
306.919	3.35
307.132	2.84
307.344	3.08
307.556	2.53
307.769	2.84
307.981	2.46
308.193	2.67
308.406	2.12
308.618	2.06
308.83	2.06
309.043	1.87
309.255	2.62
309.467	3.17
309.679	2.84
309.892	2.78
310.104	2.35
310.316	2.53
310.528	2.89
310.74	3.27
310.953	3.65
311.165	3.69
311.377	4.1
311.589	4.04
311.801	4.05
312.013	4.32
312.225	4.12
312.437	4.1
312.649	4.37
312.862	3.85
313.074	4.01
313.286	3.33
313.498	3.44
313.71	3.65
313.922	3.48
314.134	3.33
314.346	3.58
314.558	3.92
314.77	4.06
314.982	3.65
315.193	3.78
315.405	3.47
315.617	4.14
315.829	4.14
316.041	3.58
316.253	4.08
316.465	4.56
316.677	4.17
316.888	4.37
317.1	4.29
317.312	4.89
317.524	4.81
317.736	5.28
317.947	4.88
318.159	4.6
318.371	5.17
318.583	4.86
318.794	4.05
319.006	3.88
319.218	3.77
319.43	4.3
319.641	4.29
319.853	4.5
320.064	3.8
320.276	4.47
320.488	4.93
320.699	5.08
320.911	4.89
321.123	5.24
321.334	5.61
321.546	5.51
321.757	5.32
321.969	5.42
322.18	5.26
322.392	5.51
322.603	5.66
322.815	5.53
323.026	4.57
323.238	5.08
323.449	4.99
323.661	5.24
323.872	5.51
324.083	6.05
324.295	6.48
324.506	6.94
324.718	7.25
324.929	7.58
325.14	7.77
325.352	8.65
325.563	9.17
325.774	9.75
325.986	10.38
326.197	10.55
326.408	10.57
326.62	10.33
326.831	10.42
327.042	11.03
327.253	11.27
327.464	11.73
327.676	12.12
327.887	12.22
328.098	12.5
328.309	12.68
328.52	13.52
328.732	14.25
328.943	14.84
329.154	15.42
329.365	15.97
329.576	16.31
329.787	16.81
329.998	17.89
330.209	18.26
330.42	18.78
330.631	18.87
330.842	19.28
331.053	19.78
331.264	20.1
331.475	20.39
331.686	20.03
331.897	20.49
332.108	20.26
332.319	19.58
332.53	19.55
332.741	19.76
332.952	20.15
333.163	20.14
333.374	19.95
333.585	20.3
333.795	20.69
334.006	21.47
334.217	21.66
334.428	22.21
334.639	22.67
334.849	22.88
335.06	23.15
335.271	23.07
335.482	23.06
335.692	23.18
335.903	23.68
336.114	23.78
336.325	23.8
336.535	24.03
336.746	24.34
336.957	24.59
337.167	24.93
337.378	25.1
337.589	25.59
337.799	26.05
338.01	26.27
338.22	25.97
338.431	26.15
338.642	26.2
338.852	26.11
339.063	26.22
339.273	26.36
339.484	26.51
339.694	26.53
339.905	26.14
340.115	26.2
340.326	26.18
340.536	26.41
340.746	26.43
340.957	26.31
341.167	26.41
341.378	26.14
341.588	26.38
341.799	26.4
342.009	26.56
342.219	26.73
342.43	26.49
342.64	26.86
342.85	26.35
343.061	26.04
343.271	26.42
343.481	26.25
343.691	26.07
343.902	25.56
344.112	25.71
344.322	25.61
344.532	25.47
344.743	25.84
344.953	25.41
345.163	25.42
345.373	26.1
345.583	25.77
345.793	25.9
346.004	26.15
346.214	26.59
346.424	26.19
346.634	26.2
346.844	26.32
347.054	25.92
347.264	25.78
347.474	26.27
347.684	26.1
347.894	26.22
348.104	26.52
348.314	26.5
348.524	25.91
348.734	26.16
348.944	26.42
349.154	26.46
349.364	26.63
349.574	26.76
349.784	26.54
349.994	26.17
350.204	26.16
350.413	25.56
350.623	25.21
350.833	25.5
351.043	25.32
351.253	25.66
351.463	25.96
351.672	25.73
351.882	25.92
352.092	26.09
352.302	26.19
352.511	26.5
352.721	26.72
352.931	27.32
353.141	27.1
353.35	27.11
353.56	26.37
353.77	26.09
353.979	26.29
354.189	26.32
354.399	26.38
354.608	26.39
354.818	26.4
355.027	26.34
355.237	25.93
355.447	25.93
355.656	25.91
355.866	25.9
356.075	25.8
356.285	25.84
356.494	25.57
356.704	25.07
356.913	24.96
357.123	24.52
357.332	24.61
357.542	24.61
357.751	24.53
357.96	24.52
358.17	24.67
358.379	24.48
358.589	24.3
358.798	24.55
359.007	24.69
359.217	24.68
359.426	25
359.635	25.12
359.845	25.28
360.054	25.26
360.263	25.23
360.472	25.26
360.682	25.59
360.891	25.66
361.1	25.42
361.309	25.39
361.519	25.39
361.728	25.17
361.937	24.96
362.146	24.89
362.355	24.93
362.564	24.82
362.774	24.97
362.983	24.91
363.192	24.69
363.401	24.62
363.61	24.61
363.819	24.87
364.028	24.97
364.237	24.9
364.446	24.77
364.655	24.66
364.864	24.87
365.073	24.52
365.282	24.4
365.491	24.61
365.7	24.78
365.909	24.9
366.118	24.7
366.327	24.53
366.536	24.7
366.745	24.67
366.954	24.75
367.162	24.68
367.371	24.41
367.58	24.42
367.789	24.14
367.998	23.8
368.207	23.67
368.415	23.51
368.624	23.59
368.833	23.54
369.042	23.55
369.25	23.69
369.459	23.66
369.668	24.08
369.877	23.72
370.085	23.98
370.294	24.06
370.503	24.1
370.711	23.9
370.92	23.96
371.129	23.65
371.337	23.82
371.546	23.56
371.754	23.27
371.963	22.97
372.171	23.22
372.38	23.26
372.589	23.42
372.797	23.47
373.006	23.61
373.214	23.32
373.423	23.4
373.631	22.96
373.84	22.99
374.048	22.95
374.256	23.11
374.465	23.18
374.673	22.98
374.882	23
375.09	22.9
375.298	22.91
375.507	23.27
375.715	23.52
375.923	23.75
376.132	23.78
376.34	24.03
376.548	23.73
376.757	23.62
376.965	23.64
377.173	23.46
377.381	23.34
377.59	23.4
377.798	23.22
378.006	23.39
378.214	23.45
378.423	23.4
378.631	23.37
378.839	23.55
379.047	23.68
379.255	23.7
379.463	23.77
379.671	24.11
379.879	23.98
380.088	24.21
380.296	23.85
380.504	23.74
380.712	23.92
380.92	23.86
381.128	23.82
381.336	23.7
381.544	23.71
381.752	23.9
381.96	23.58
382.168	23.39
382.376	23.08
382.584	23.34
382.791	23.14
382.999	23.05
383.207	22.97
383.415	22.81
383.623	22.88
383.831	22.9
384.039	23.04
384.247	23.18
384.454	23.47
384.662	23.58
384.87	23.41
385.078	23.81
385.285	23.81
385.493	24.05
385.701	24.14
385.909	24.19
386.116	24
386.324	24.01
386.532	24.05
386.739	24
386.947	23.88
387.155	23.96
387.362	23.92
387.57	23.83
387.778	23.75
387.985	23.79
388.193	23.75
388.4	23.92
388.608	23.62
388.816	23.65
389.023	23.69
389.231	23.88
389.438	23.65
389.646	23.84
389.853	23.84
390.061	23.75
390.268	23.67
390.475	23.52
390.683	23.55
390.89	23.39
391.098	23.32
391.305	23.1
391.512	22.92
391.72	22.96
391.927	22.75
392.135	23.01
392.342	22.99
392.549	23.04
392.756	23.04
392.964	23.06
393.171	23.37
393.378	23.46
393.586	23.64
393.793	23.82
394	23.91
394.207	23.94
394.414	23.69
394.622	23.78
394.829	23.97
395.036	24.06
395.243	23.95
395.45	23.81
395.657	23.69
395.864	23.86
396.072	23.66
396.279	23.65
396.486	23.47
396.693	23.64
396.9	23.6
397.107	23.72
397.314	23.86
397.521	23.91
397.728	24.01
397.935	24.09
398.142	23.73
398.349	23.94
398.556	23.98
398.763	24.07
398.97	24.15
399.177	24.02
399.383	23.84
399.59	23.74
399.797	23.83
400.004	23.77
400.211	23.75
400.418	23.84
400.625	23.92
400.831	23.71
401.038	23.75
401.245	23.87
401.452	23.92
401.658	23.92
401.865	23.86
402.072	23.77
402.279	23.89
402.485	23.92
402.692	24.06
402.899	23.8
403.105	24.06
403.312	24.28
403.519	24.18
403.725	24.27
403.932	24.27
404.138	24.45
404.345	24.47
404.552	24.43
404.758	24.62
404.965	24.62
405.171	24.8
405.378	24.87
405.584	24.82
405.791	24.88
405.997	25.03
406.204	25.14
406.41	25.23
406.617	25.17
406.823	25.18
407.029	25.08
407.236	25.24
407.442	25.38
407.649	25.36
407.855	25.43
408.061	25.32
408.268	25.3
408.474	25.2
408.68	25.2
408.887	25.43
409.093	25.41
409.299	25.4
409.505	25.19
409.712	25.21
409.918	25.15
410.124	25.17
410.33	25.16
410.537	25.08
410.743	25.28
410.949	25.2
411.155	25.18
411.361	25.11
411.567	24.95
411.773	25.06
411.98	25.05
412.186	24.97
412.392	24.97
412.598	24.94
412.804	25.03
413.01	24.86
413.216	24.8
413.422	24.63
413.628	24.76
413.834	24.81
414.04	24.72
414.246	24.7
414.452	24.86
414.658	24.8
414.864	24.9
415.07	24.81
415.275	24.8
415.481	24.9
415.687	25.17
415.893	25.41
416.099	25.6
416.305	25.78
416.511	25.81
416.716	25.82
416.922	25.89
417.128	25.86
417.334	25.95
417.539	26.01
417.745	26
417.951	25.94
418.157	26.02
418.362	26.01
418.568	26.06
418.774	25.97
418.979	25.96
419.185	25.91
419.391	26.01
419.596	25.95
419.802	26
420.008	25.97
420.213	26.27
420.419	26.19
420.624	26.12
420.83	26.09
421.035	26.14
421.241	26.16
421.446	26.15
421.652	26.15
421.857	26.32
422.063	26.25
422.268	26.28
422.474	26
422.679	25.95
422.885	26.03
423.09	25.99
423.295	26.03
423.501	26.05
423.706	26.14
423.911	26.17
424.117	26.08
424.322	26.23
424.527	26.29
424.733	26.26
424.938	26.26
425.143	26.26
425.349	26.34
425.554	26.34
425.759	26.4
425.964	26.37
426.169	26.37
426.375	26.46
426.58	26.42
426.785	26.43
426.99	26.5
427.195	26.57
427.4	26.6
427.605	26.66
427.811	26.83
428.016	26.85
428.221	26.94
428.426	26.92
428.631	26.95
428.836	27
429.041	27.02
429.246	27.08
429.451	27.11
429.656	27.12
429.861	27.13
430.066	27.07
430.271	27.16
430.476	27.18
430.681	27.21
430.886	27.27
431.09	27.39
431.295	27.42
431.5	27.6
431.705	27.55
431.91	27.64
432.115	27.69
432.32	27.74
432.524	27.65
432.729	27.69
432.934	27.74
433.139	27.71
433.343	27.63
433.548	27.66
433.753	27.59
433.958	27.68
434.162	27.7
434.367	27.6
434.572	27.6
434.776	27.61
434.981	27.54
435.186	27.62
435.39	27.6
435.595	27.71
435.799	27.68
436.004	27.69
436.209	27.78
436.413	27.84
436.618	27.86
436.822	27.87
437.027	27.84
437.231	27.98
437.436	28
437.64	28.19
437.845	28.19
438.049	28.17
438.253	28.18
438.458	28.03
438.662	28.08
438.867	28.21
439.071	28.28
439.275	28.41
439.48	28.4
439.684	28.37
439.888	28.24
440.093	28.13
440.297	28.25
440.501	28.25
440.706	28.3
440.91	28.18
441.114	28.17
441.318	28.13
441.523	28.16
441.727	28.06
441.931	28.12
442.135	28.11
442.339	28.21
442.543	28.16
442.748	28.18
442.952	28.22
443.156	28.34
443.36	28.22
443.564	28.25
443.768	28.2
443.972	28.32
444.176	28.21
444.38	28.22
444.584	28.12
444.788	28.12
444.992	28.06
445.196	28.11
445.4	28.1
445.604	28.08
445.808	28.09
446.012	28.21
446.216	28.28
446.42	28.26
446.624	28.26
446.828	28.28
447.032	28.27
447.235	28.34
447.439	28.34
447.643	28.3
447.847	28.33
448.051	28.28
448.254	28.11
448.458	28.02
448.662	28.11
448.866	28.14
449.069	28.24
449.273	28.18
449.477	28.21
449.681	28.07
449.884	28.16
450.088	28.36
450.292	28.48
450.495	28.5
450.699	28.48
450.902	28.42
451.106	28.51
451.31	28.52
451.513	28.58
451.717	28.51
451.92	28.73
452.124	28.63
452.327	28.57
452.531	28.49
452.734	28.51
452.938	28.57
453.141	28.61
453.345	28.51
453.548	28.62
453.752	28.69
453.955	28.81
454.158	28.85
454.362	28.87
454.565	28.76
454.769	28.78
454.972	28.77
455.175	28.76
455.379	28.82
455.582	28.87
455.785	28.74
455.988	28.63
456.192	28.56
456.395	28.48
456.598	28.48
456.801	28.54
457.005	28.54
457.208	28.66
457.411	28.66
457.614	28.47
457.817	28.38
458.021	28.32
458.224	28.26
458.427	28.3
458.63	28.25
458.833	28.33
459.036	28.37
459.239	28.41
459.442	28.35
459.645	28.33
459.848	28.39
460.051	28.4
460.254	28.44
460.457	28.54
460.66	28.52
460.863	28.53
461.066	28.48
461.269	28.48
461.472	28.5
461.675	28.51
461.878	28.52
462.081	28.55
462.284	28.54
462.486	28.61
462.689	28.54
462.892	28.65
463.095	28.62
463.298	28.65
463.5	28.74
463.703	28.56
463.906	28.48
464.109	28.51
464.311	28.4
464.514	28.49
464.717	28.49
464.92	28.64
465.122	28.53
465.325	28.68
465.528	28.71
465.73	28.62
465.933	28.64
466.135	28.72
466.338	28.72
466.541	28.88
466.743	28.88
466.946	28.83
467.148	28.77
467.351	28.84
467.553	28.69
467.756	28.62
467.958	28.66
468.161	28.79
468.363	28.78
468.566	28.9
468.768	28.83
468.971	28.91
469.173	28.83
469.375	28.83
469.578	28.85
469.78	28.85
469.983	28.89
470.185	28.86
470.387	28.86
470.59	28.87
470.792	28.85
470.994	28.99
471.196	28.9
471.399	29
471.601	28.98
471.803	28.92
472.005	28.98
472.208	28.92
472.41	28.87
472.612	28.83
472.814	28.81
473.016	28.7
473.218	28.55
473.421	28.56
473.623	28.61
473.825	28.71
474.027	28.72
474.229	28.73
474.431	28.85
474.633	28.86
474.835	28.91
475.037	28.9
475.239	28.95
475.441	29.11
475.643	28.99
475.845	28.93
476.047	28.87
476.249	28.83
476.451	28.74
476.653	28.71
476.855	28.78
477.057	28.82
477.258	28.78
477.46	28.73
477.662	28.69
477.864	28.76
478.066	28.79
478.268	28.79
478.469	28.84
478.671	28.95
478.873	28.93
479.075	28.86
479.276	28.72
479.478	28.79
479.68	28.85
479.882	28.81
480.083	28.82
480.285	28.8
480.487	28.76
480.688	28.83
480.89	28.87
481.091	28.84
481.293	28.9
481.495	28.91
481.696	28.95
481.898	28.98
482.099	28.97
482.301	28.98
482.502	29
482.704	29
482.905	28.97
483.107	28.93
483.308	28.95
483.51	28.94
483.711	28.97
483.913	28.95
484.114	28.91
484.315	28.91
484.517	28.89
484.718	28.89
484.92	28.93
485.121	28.91
485.322	28.93
485.524	28.94
485.725	28.92
485.926	28.91
486.127	28.94
486.329	29.02
486.53	29.03
486.731	29.09
486.932	29.11
487.134	29.07
487.335	29.12
487.536	29.08
487.737	29.09
487.938	29.1
488.139	29.13
488.341	29.11
488.542	29.07
488.743	29.07
488.944	29.08
489.145	29.08
489.346	29.1
489.547	29.06
489.748	29.15
489.949	29.14
490.15	29.17
490.351	29.19
490.552	29.21
490.753	29.17
490.954	29.25
491.155	29.24
491.356	29.21
491.557	29.25
491.758	29.25
491.959	29.26
492.159	29.25
492.36	29.24
492.561	29.24
492.762	29.26
492.963	29.3
493.164	29.3
493.364	29.35
493.565	29.48
493.766	29.51
493.967	29.54
494.167	29.46
494.368	29.52
494.569	29.5
494.769	29.52
494.97	29.61
495.171	29.61
495.371	29.59
495.572	29.57
495.773	29.5
495.973	29.5
496.174	29.59
496.375	29.72
496.575	29.85
496.776	29.83
496.976	29.79
497.177	29.62
497.377	29.77
497.578	29.75
497.778	29.73
497.979	29.74
498.179	29.77
498.38	29.78
498.58	29.74
498.78	29.69
498.981	29.79
499.181	29.85
499.382	29.99
499.582	29.91
499.782	30.01
499.983	29.95
500.183	29.96
500.383	29.92
500.584	29.99
500.784	30
500.984	29.9
501.184	29.9
501.385	29.93
501.585	29.95
501.785	29.91
501.985	29.84
502.185	29.94
502.386	30.01
502.586	30.09
502.786	30.01
502.986	29.96
503.186	30.12
503.386	30.16
503.586	30.13
503.786	30.12
503.987	30.14
504.187	30.18
504.387	30.15
504.587	30.28
504.787	30.21
504.987	30.31
505.187	30.45
505.387	30.41
505.587	30.52
505.786	30.58
505.986	30.72
506.186	30.84
506.386	30.88
506.586	30.87
506.786	30.8
506.986	30.77
507.186	30.64
507.386	30.66
507.585	30.67
507.785	30.5
507.985	30.54
508.185	30.46
508.384	30.51
508.584	30.6
508.784	30.74
508.984	30.67
509.183	30.76
509.383	30.8
509.583	30.78
509.782	30.73
509.982	30.79
510.182	30.85
510.381	30.83
510.581	30.87
510.781	30.83
510.98	30.83
511.18	30.95
511.379	31
511.579	31.09
511.778	31.17
511.978	31.27
512.177	31.29
512.377	31.23
512.576	31.24
512.776	31.26
512.975	31.26
513.175	31.28
513.374	31.26
513.573	31.29
513.773	31.19
513.972	31.14
514.172	31.12
514.371	31.16
514.57	31.22
514.77	31.24
514.969	31.19
515.168	31.17
515.367	31.15
515.567	31.12
515.766	31.1
515.965	31.19
516.164	31.27
516.364	31.39
516.563	31.5
516.762	31.58
516.961	31.64
517.16	31.67
517.359	31.69
517.559	31.75
517.758	31.88
517.957	31.91
518.156	31.92
518.355	31.88
518.554	31.83
518.753	31.82
518.952	31.81
519.151	31.79
519.35	31.78
519.549	31.84
519.748	31.82
519.947	31.75
520.146	31.8
520.345	31.85
520.544	31.85
520.743	31.93
520.942	31.86
521.141	31.86
521.339	31.91
521.538	31.91
521.737	31.95
521.936	31.97
522.135	32.06
522.333	32.1
522.532	32.15
522.731	32.29
522.93	32.27
523.129	32.43
523.327	32.43
523.526	32.38
523.725	32.4
523.923	32.37
524.122	32.29
524.321	32.23
524.519	32.21
524.718	32.14
524.917	32.19
525.115	32.11
525.314	32.07
525.512	32.06
525.711	32.06
525.909	32.1
526.108	32.09
526.306	32.14
526.505	32.11
526.703	32.06
526.902	32.2
527.1	32.14
527.299	32.2
527.497	32.24
527.696	32.23
527.894	32.23
528.092	32.22
528.291	32.22
528.489	32.28
528.688	32.35
528.886	32.35
529.084	32.26
529.283	32.25
529.481	32.26
529.679	32.23
529.877	32.26
530.076	32.31
530.274	32.27
530.472	32.3
530.67	32.26
530.869	32.28
531.067	32.36
531.265	32.41
531.463	32.5
531.661	32.55
531.859	32.62
532.057	32.61
532.255	32.6
532.454	32.75
532.652	32.73
532.85	32.76
533.048	32.72
533.246	32.78
533.444	32.84
533.642	32.81
533.84	32.76
534.038	32.75
534.236	32.77
534.434	32.73
534.632	32.72
534.83	32.76
535.027	32.74
535.225	32.78
535.423	32.69
535.621	32.73
535.819	32.73
536.017	32.8
536.215	32.79
536.412	32.85
536.61	33.02
536.808	32.97
537.006	33.01
537.203	33.12
537.401	33.1
537.599	33.18
537.797	33.17
537.994	33.2
538.192	33.3
538.39	33.38
538.587	33.36
538.785	33.37
538.983	33.46
539.18	33.44
539.378	33.41
539.575	33.51
539.773	33.56
539.97	33.58
540.168	33.65
540.366	33.67
540.563	33.7
540.761	33.75
540.958	33.71
541.155	33.74
541.353	33.76
541.55	33.8
541.748	33.8
541.945	33.8
542.143	33.87
542.34	33.87
542.537	33.84
542.735	33.87
542.932	33.91
543.129	33.98
543.327	34.08
543.524	34.18
543.721	34.24
543.919	34.29
544.116	34.37
544.313	34.49
544.51	34.68
544.708	34.87
544.905	35.01
545.102	35.07
545.299	35.14
545.496	35.12
545.693	35.12
545.891	35.23
546.088	35.34
546.285	35.33
546.482	35.25
546.679	35.15
546.876	35
547.073	34.93
547.27	34.91
547.467	34.9
547.664	34.81
547.861	34.87
548.058	34.69
548.255	34.59
548.452	34.63
548.649	34.6
548.846	34.53
549.043	34.6
549.24	34.58
549.437	34.57
549.633	34.61
549.83	34.66
550.027	34.59
550.224	34.62
550.421	34.67
550.618	34.62
550.814	34.51
551.011	34.52
551.208	34.43
551.405	34.4
551.601	34.29
551.798	34.18
551.995	34.19
552.191	34.18
552.388	34.1
552.585	34.09
552.781	34.12
552.978	34.19
553.175	34.22
553.371	34.21
553.568	34.24
553.764	34.33
553.961	34.3
554.157	34.37
554.354	34.28
554.55	34.26
554.747	34.23
554.943	34.09
555.14	34.04
555.336	33.95
555.533	33.92
555.729	33.98
555.926	33.97
556.122	34.16
556.318	34.15
556.515	34.39
556.711	34.57
556.907	34.47
557.104	34.52
557.3	34.56
557.496	34.5
557.693	34.75
557.889	34.66
558.085	34.76
558.281	34.7
558.478	34.78
558.674	34.56
558.87	34.53
559.066	34.69
559.262	34.64
559.459	34.67
559.655	34.85
559.851	34.65
560.047	34.79
560.243	34.66
560.439	34.68
560.635	34.61
560.831	34.75
561.027	34.65
561.223	34.62
561.419	34.61
561.615	34.54
561.811	34.53
562.007	34.59
562.203	34.47
562.399	34.58
562.595	34.43
562.791	34.28
562.987	34.38
563.183	34.45
563.379	34.39
563.575	34.38
563.771	34.45
563.966	34.44
564.162	34.54
564.358	34.44
564.554	34.38
564.75	34.41
564.945	34.55
565.141	34.44
565.337	34.31
565.533	34.39
565.728	34.47
565.924	34.5
566.12	34.51
566.315	34.43
566.511	34.45
566.707	34.5
566.902	34.6
567.098	34.57
567.293	34.66
567.489	34.77
567.684	34.79
567.88	34.76
568.076	34.73
568.271	34.78
568.467	34.71
568.662	34.78
568.858	34.7
569.053	34.65
569.248	34.68
569.444	34.59
569.639	34.59
569.835	34.56
570.03	34.73
570.225	34.75
570.421	34.67
570.616	34.88
570.812	34.97
571.007	35.12
571.202	35.15
571.397	35.15
571.593	35.1
571.788	35.08
571.983	35.13
572.178	35.1
572.374	35.16
572.569	35.29
572.764	35.2
572.959	35.21
573.154	35.15
573.35	35.21
573.545	35.23
573.74	35.25
573.935	35.42
574.13	35.32
574.325	35.19
574.52	35.17
574.715	35.13
574.91	34.96
575.105	34.96
575.3	34.97
575.495	34.95
575.69	34.85
575.885	34.99
576.08	35.04
576.275	35.14
576.47	35.3
576.665	35.38
576.86	35.41
577.055	35.64
577.25	35.63
577.444	35.61
577.639	35.65
577.834	35.84
578.029	35.88
578.224	35.84
578.418	35.86
578.613	35.89
578.808	35.98
579.003	36.04
579.197	36.2
579.392	36.21
579.587	36.21
579.781	36.14
579.976	36.23
580.171	36.14
580.365	36.21
580.56	36.3
580.755	36.32
580.949	36.13
581.144	36.12
581.338	36.02
581.533	36.16
581.727	36.29
581.922	36.39
582.116	36.32
582.311	36.47
582.505	36.39
582.7	36.51
582.894	36.53
583.089	36.57
583.283	36.54
583.478	36.39
583.672	36.36
583.866	36.44
584.061	36.44
584.255	36.52
584.449	36.46
584.644	36.57
584.838	36.41
585.032	36.43
585.226	36.51
585.421	36.62
585.615	36.87
585.809	36.95
586.003	36.96
586.198	36.95
586.392	36.86
586.586	37.05
586.78	37.16
586.974	37.26
587.168	37.23
587.363	37.31
587.557	37.26
587.751	37.19
587.945	37
588.139	36.95
588.333	36.84
588.527	36.84
588.721	36.57
588.915	36.56
589.109	36.63
589.303	36.67
589.497	36.55
589.691	36.64
589.885	36.67
590.079	36.73
590.273	36.75
590.466	36.92
590.66	36.96
590.854	37.05
591.048	36.94
591.242	36.84
591.436	36.89
591.629	36.88
591.823	36.97
592.017	36.87
592.211	36.98
592.404	36.96
592.598	36.95
592.792	37.06
592.986	37.04
593.179	37.02
593.373	37.07
593.567	37.02
593.76	37.04
593.954	36.97
594.147	37.02
594.341	37.02
594.535	36.96
594.728	37.05
594.922	36.86
595.115	36.94
595.309	37.05
595.502	36.88
595.696	36.9
595.889	37
596.083	36.99
596.276	36.92
596.47	36.94
596.663	36.94
596.856	36.96
597.05	37.14
597.243	37.09
597.437	36.88
597.63	36.97
597.823	37.01
598.017	37.06
598.21	37.06
598.403	37.12
598.596	37.21
598.79	37.37
598.983	37.37
599.176	37.32
599.369	37.32
599.563	37.48
599.756	37.61
599.949	37.66
600.142	37.51
600.335	37.47
600.528	37.57
600.722	37.61
600.915	37.44
601.108	37.39
601.301	37.33
601.494	37.43
601.687	37.48
601.88	37.45
602.073	37.16
602.266	37.19
602.459	37.26
602.652	37.23
602.845	37.13
603.038	37.16
603.231	37.08
603.424	36.98
603.617	36.97
603.809	36.98
604.002	36.95
604.195	36.98
604.388	37.11
604.581	37.08
604.774	37.16
604.966	37.18
605.159	37.31
605.352	37.42
605.545	37.55
605.737	37.54
605.93	37.63
606.123	37.59
606.316	37.7
606.508	37.75
606.701	37.75
606.894	37.72
607.086	37.65
607.279	37.59
607.471	37.75
607.664	37.96
607.857	38.22
608.049	38.47
608.242	38.84
608.434	39.18
608.627	39.52
608.819	40.16
609.012	40.72
609.204	41.42
609.397	42.19
609.589	42.93
609.782	43.81
609.974	44.49
610.166	45.31
610.359	46.15
610.551	47.16
610.743	47.79
610.936	48.26
611.128	48.77
611.32	49.17
611.513	49.37
611.705	49.31
611.897	49.16
612.09	49.2
612.282	48.83
612.474	48.36
612.666	47.7
612.858	47.23
613.051	46.91
613.243	46.39
613.435	45.75
613.627	45.42
613.819	45.18
614.011	44.63
614.203	44.1
614.395	43.73
614.588	43.35
614.78	42.93
614.972	42.57
615.164	42.26
615.356	42.15
615.548	42.25
615.74	42.05
615.932	41.57
616.124	41.5
616.315	41.33
616.507	41.2
616.699	41.18
616.891	41.07
617.083	40.83
617.275	40.8
617.467	40.56
617.659	40.12
617.85	39.87
618.042	39.78
618.234	39.55
618.426	39.31
618.618	39.2
618.809	39.13
619.001	39.24
619.193	39.26
619.384	39.02
619.576	38.91
619.768	38.94
619.959	39.11
620.151	39.21
620.343	39.23
620.534	39.13
620.726	39.18
620.917	39.16
621.109	39.13
621.301	39.33
621.492	39.55
621.684	39.81
621.875	39.78
622.067	39.89
622.258	40.09
622.45	40.05
622.641	40.42
622.832	40.44
623.024	40.25
623.215	40.14
623.407	40.26
623.598	39.94
623.789	39.87
623.981	40.03
624.172	40.02
624.363	39.84
624.555	40.06
624.746	40.1
624.937	40.18
625.129	40.38
625.32	40.32
625.511	40.16
625.702	40.07
625.893	40.1
626.085	40.15
626.276	40
626.467	40.31
626.658	40.15
626.849	40.1
627.04	40.14
627.231	40.08
627.422	40.26
627.614	40.26
627.805	40.31
627.996	40.33
628.187	40.21
628.378	40.33
628.569	39.99
628.76	40.03
628.951	40.03
629.142	39.93
629.332	40.32
629.523	40.62
629.714	40.67
629.905	41.21
630.096	41.41
630.287	41.48
630.478	41.37
630.669	41.43
630.859	41.62
631.05	41.6
631.241	41.61
631.432	41.42
631.623	40.97
631.813	41.03
632.004	40.72
632.195	40.53
632.385	40.47
632.576	40.53
632.767	40.49
632.957	40.36
633.148	40.59
633.339	40.71
633.529	40.67
633.72	40.59
633.91	40.31
634.101	40.33
634.292	40.19
634.482	40.06
634.673	40
634.863	40.12
635.054	40.13
635.244	40.01
635.435	39.87
635.625	39.75
635.815	39.93
636.006	39.83
636.196	39.59
636.387	39.63
636.577	39.89
636.767	39.94
636.958	39.6
637.148	39.69
637.338	39.62
637.529	39.92
637.719	39.7
637.909	39.87
638.099	40.13
638.29	40.35
638.48	40.32
638.67	40.33
638.86	40.24
639.05	40.62
639.241	40.59
639.431	40.63
639.621	40.34
639.811	40.56
640.001	40.29
640.191	40.51
640.381	40.54
640.571	40.69
640.761	40.74
640.951	40.74
641.141	40.57
641.331	40.72
641.521	40.65
641.711	40.49
641.901	40.41
642.091	40.43
642.281	40.17
642.471	40.08
642.661	39.94
642.851	39.68
643.041	39.75
643.231	39.91
643.42	39.67
643.61	39.51
643.8	39.49
643.99	39.48
644.18	39.57
644.369	39.67
644.559	39.76
644.749	39.62
644.939	39.57
645.128	39.63
645.318	39.44
645.508	39.39
645.697	39.47
645.887	39.54
646.076	39.78
646.266	40.02
646.456	40.06
646.645	40.15
646.835	40.17
647.024	40.4
647.214	40.46
647.403	40.69
647.593	40.93
647.782	40.74
647.972	40.74
648.161	40.86
648.351	40.69
648.54	40.82
648.73	40.76
648.919	41.17
649.108	41.19
649.298	41.22
649.487	41.51
649.677	41.78
649.866	41.99
650.055	42
650.244	41.83
650.434	41.89
650.623	42
650.812	42.02
651.002	42.14
651.191	42.17
651.38	42.37
651.569	42.36
651.758	41.89
651.947	41.79
652.137	42.02
652.326	42.16
652.515	41.92
652.704	41.65
652.893	41.63
653.082	41.24
653.271	41.24
653.46	40.84
653.649	40.39
653.838	40.57
654.027	40.73
654.216	40.5
654.405	40.46
654.594	40.56
654.783	40.52
654.972	40.36
655.161	40.25
655.35	40.29
655.539	40.37
655.728	40.64
655.916	40.65
656.105	40.68
656.294	40.72
656.483	40.63
656.672	40.88
656.86	41.01
657.049	41.05
657.238	41.21
657.427	41.14
657.615	41.34
657.804	41.21
657.993	41.19
658.181	41.35
658.37	41.35
658.559	41.23
658.747	41.35
658.936	41.4
659.125	41.62
659.313	41.55
659.502	41.58
659.69	41.56
659.879	41.8
660.067	41.83
660.256	41.68
660.444	41.81
660.633	41.97
660.821	41.88
661.01	41.86
661.198	41.8
661.387	41.96
661.575	42
661.763	41.9
661.952	41.79
662.14	41.94
662.328	42.05
662.517	41.93
662.705	41.77
662.893	41.74
663.082	41.84
663.27	41.6
663.458	41.93
663.646	41.85
663.834	41.77
664.023	41.58
664.211	41.31
664.399	41.3
664.587	41.32
664.775	41.4
664.963	41.21
665.152	41.25
665.34	41.52
665.528	41.12
665.716	41.3
665.904	41.61
666.092	41.76
666.28	42.2
666.468	42.43
666.656	42.45
666.844	42.68
667.032	42.63
667.22	42.84
667.408	42.75
667.596	43.11
667.784	43.15
667.971	43.15
668.159	43.11
668.347	43.09
668.535	42.76
668.723	42.62
668.911	42.3
669.098	42.36
669.286	41.96
669.474	41.86
669.662	41.62
669.849	41.62
670.037	41.45
670.225	41.37
670.413	41.05
670.6	41
670.788	41.15
670.976	41.54
671.163	41.76
671.351	41.93
671.538	42.05
671.726	42.1
671.913	42.17
672.101	42.55
672.289	42.73
672.476	42.72
672.664	42.96
672.851	43.22
673.039	42.88
673.226	42.79
673.413	42.85
673.601	43.03
673.788	43.06
673.976	42.88
674.163	42.75
674.35	42.59
674.538	42.49
674.725	42.66
674.912	42.26
675.1	42.86
675.287	42.74
675.474	43
675.662	42.98
675.849	42.89
676.036	43.01
676.223	42.81
676.411	43
676.598	43.03
676.785	43.11
676.972	43.51
677.159	43.19
677.346	43.64
677.533	43.7
677.721	43.44
677.908	43.41
678.095	43.6
678.282	43.65
678.469	43.53
678.656	43.93
678.843	43.75
679.03	43.53
679.217	43.47
679.404	43.34
679.591	43.25
679.778	43.47
679.964	43.79
680.151	43.51
680.338	43.52
680.525	43.4
680.712	43.25
680.899	43.1
681.086	43.44
681.272	43.65
681.459	43.49
681.646	43.28
681.833	43.45
682.02	43.3
682.206	43.47
682.393	43.45
682.58	43.67
682.766	43.95
682.953	44.36
683.14	44.3
683.326	44.3
683.513	44.42
683.7	44.38
683.886	44.25
684.073	44.08
684.259	44.16
684.446	44.55
684.632	44.65
684.819	44.33
685.005	44.13
685.192	43.72
685.378	43.72
685.565	43.74
685.751	43.91
685.938	43.97
686.124	44.31
686.31	44.29
686.497	44.13
686.683	44.2
686.87	44.57
687.056	44.74
687.242	45.16
687.429	45.29
687.615	45.5
687.801	45.65
687.987	45.74
688.174	45.74
688.36	45.89
688.546	46.03
688.732	45.99
688.918	45.59
689.105	45.63
689.291	45.56
689.477	45.11
689.663	44.72
689.849	45.05
690.035	44.93
690.221	44.92
690.407	44.64
690.593	44.22
690.779	43.87
690.965	44.05
691.151	43.45
691.337	43.51
691.523	43.84
691.709	44.19
691.895	43.82
692.081	43.95
692.267	43.93
692.453	44.02
692.639	44.22
692.825	44.44
693.011	44.6
693.196	44.97
693.382	44.76
693.568	44.58
693.754	44.92
693.94	44.8
694.125	44.6
694.311	44.68
694.497	44.92
694.682	45.04
694.868	45.13
695.054	44.91
695.239	45.09
695.425	45.16
695.611	45.18
695.796	44.78
695.982	44.87
696.168	44.83
696.353	44.49
696.539	44.25
696.724	44.03
696.91	44.3
697.095	44.14
697.281	44.04
697.466	44.36
697.652	44.21
697.837	44.23
698.023	44.18
698.208	44.26
698.393	44.24
698.579	44.53
698.764	44.79
698.949	44.58
699.135	44.84
699.32	44.96
699.505	44.43
699.691	44.66
699.876	44.63
700.061	44.49
700.246	44.53
700.432	44.87
700.617	44.81
700.802	44.59
700.987	44.76
701.172	44.71
701.358	44.51
701.543	45.04
701.728	44.68
701.913	44.96
702.098	45.55
702.283	45.41
702.468	45.38
702.653	45.29
702.838	45.34
703.023	45.23
703.208	45.23
703.393	45.59
703.578	45.53
703.763	46.42
703.948	46.62
704.133	46.51
704.318	47.07
704.503	47.26
704.688	47.24
704.873	47.34
705.057	47.37
705.242	47.61
705.427	48.07
705.612	48.06
705.797	48.41
705.981	48.5
706.166	48.59
706.351	48.85
706.536	49.1
706.72	49.07
706.905	49.29
707.09	49.42
707.274	49.56
707.459	49.35
707.644	49.65
707.828	49.48
708.013	49.65
708.197	49.9
708.382	49.2
708.567	49.02
708.751	49.29
708.936	48.77
709.12	49.46
709.305	49.4
709.489	49.26
709.673	49.1
709.858	48.88
710.042	48.8
710.227	48.51
710.411	48.65
710.596	48.44
710.78	48.71
710.964	49.1
711.149	48.53
711.333	48.42
711.517	48.42
711.702	48.86
711.886	49.08
712.07	48.46
712.254	48.29
712.438	47.79
712.623	47.69
712.807	47.01
712.991	46.77
713.175	46.43
713.359	46.43
713.544	46.18
713.728	45.32
713.912	45.09
714.096	45.46
714.28	45.15
714.464	45.94
714.648	46.07
714.832	46.25
715.016	46.49
715.2	46.96
715.384	46.58
715.568	46.66
715.752	47.16
715.936	46.72
716.12	46.3
716.304	46.57
716.488	45.96
716.671	45.89
716.855	46.01
717.039	45.93
717.223	45.56
717.407	45.54
717.59	45.65
717.774	45.35
717.958	45.59
718.142	45.49
718.325	45.13
718.509	45.45
718.693	45.52
718.877	45.11
719.06	45.21
719.244	45.1
719.428	45.6
719.611	45.19
719.795	45.12
719.978	45.22
720.162	45.47
720.345	45.73
720.529	45.75
720.713	45.9
720.896	46.14
721.08	46.15
721.263	46.48
721.446	46.02
721.63	45.9
721.813	46.25
721.997	46.31
722.18	46.11
722.364	45.97
722.547	46.12
722.73	45.76
722.914	45.85
723.097	46.19
723.28	46.08
723.464	46.07
723.647	46.54
723.83	46.08
724.013	45.73
724.197	45.81
724.38	46.35
724.563	45.67
724.746	45.78
724.929	45.92
725.112	45.03
725.296	45.05
725.479	45.11
725.662	44.79
725.845	45.05
726.028	45.31
726.211	45.13
726.394	44.66
726.577	45.32
726.76	45.46
726.943	45.29
727.126	45.33
727.309	45.45
727.492	45.58
727.675	45.26
727.858	45.77
728.041	44.9
728.224	45.06
728.407	45.06
728.589	45.47
728.772	45.32
728.955	45.36
729.138	45.95
729.321	45.79
729.503	45.69
729.686	46.57
729.869	46.29
730.052	47.08
730.234	47.34
730.417	47.51
730.6	47.18
730.782	46.76
730.965	46.94
731.148	46.74
731.33	46.52
731.513	46.83
731.695	46.87
731.878	46.5
732.061	46.62
732.243	46.74
732.426	46.88
732.608	46.92
732.791	47.18
732.973	47.15
733.156	46.78
733.338	47.06
733.52	47.12
733.703	46.75
733.885	47
734.068	46.53
734.25	46.28
734.432	46.31
734.615	45.98
734.797	45.76
734.979	45.66
735.162	46.35
735.344	46.66
735.526	47.19
735.708	47.05
735.891	46.86
736.073	46.89
736.255	46.92
736.437	46.75
736.619	47.09
736.802	48.27
736.984	47.86
737.166	47.31
737.348	47.32
737.53	47.04
737.712	47.18
737.894	47.96
738.076	48.57
738.258	48.44
738.44	48.55
738.622	48.82
738.804	48.33
738.986	48.65
739.168	48.87
739.35	48.6
739.532	48.41
739.714	48.33
739.896	47.67
740.078	47.76
740.259	48.13
740.441	48.17
740.623	47.99
740.805	47.26
740.987	47.31
741.168	47.18
741.35	46.95
741.532	47.11
741.714	47.55
741.895	47.95
742.077	48.02
742.259	47.62
742.44	48.07
742.622	48.2
742.804	48.73
742.985	49.69
743.167	49.25
743.348	49.55
743.53	49.25
743.711	48.93
743.893	48.92
744.075	48.43
744.256	48.06
744.438	47.19
744.619	47.01
744.8	47.28
744.982	46.57
745.163	47.09
745.345	46.77
745.526	46.95
745.707	47.48
745.889	46.75
746.07	47.45
746.252	48.04
746.433	48.57
746.614	49.12
746.795	48.89
746.977	48.57
747.158	48.43
747.339	48.41
747.52	48.03
747.702	47.39
747.883	48.52
748.064	48.1
748.245	47.85
748.426	47.09
748.607	46.39
748.788	45.92
748.97	45.74
749.151	45.51
749.332	45.96
749.513	46.28
749.694	46.64
749.875	46.02
750.056	45.58
750.237	46.17
750.418	46.48
750.599	46.04
750.78	46.31
750.96	47.07
751.141	47.38
751.322	47.1
751.503	46.22
751.684	46.35
751.865	46.41
752.046	47.35
752.226	47.03
752.407	47.64
752.588	48.25
752.769	48.38
752.949	47.7
753.13	47.85
753.311	48.03
753.492	49.2
753.672	48.7
753.853	47.92
754.034	47.28
754.214	47.66
754.395	47.41
754.575	47.79
754.756	47.35
754.937	47.83
755.117	47.54
755.298	47.61
755.478	47.06
755.659	47.96
755.839	48.23
756.02	48.44
756.2	47.71
756.381	47.59
756.561	47.35
756.741	47.97
756.922	48.24
757.102	48.86
757.283	47.55
757.463	46.92
757.643	46.56
757.823	46.43
758.004	46.38
758.184	46.65
758.364	46.85
758.545	46.93
758.725	46.53
758.905	46.04
759.085	45.28
759.265	45.87
759.446	47.23
759.626	46.25
759.806	46.4
759.986	46.08
760.166	46.07
760.346	45.47
760.526	44.84
760.706	44.91
760.886	44.65
761.066	44.53
761.246	44.89
761.426	44.15
761.606	44.65
761.786	44.99
761.966	45.51
762.146	44.78
762.326	44.71
762.506	44.61
762.686	44.44
762.866	44.21
763.046	44.88
763.225	44.84
763.405	45.09
763.585	45.11
763.765	44.62
763.945	43.89
764.124	44.57
764.304	44.64
764.484	45.07
764.664	45.22
764.843	45.8
765.023	45.55
765.203	45.74
765.382	45.41
765.562	45.33
765.741	45.96
765.921	46.59
766.101	46.29
766.28	46.84
766.46	46.97
766.639	47.81
766.819	47.14
766.998	46.92
767.178	46.25
767.357	46.76
767.537	47.21
767.716	46.62
767.896	46.36
768.075	46.82
768.254	46.25
768.434	46.4
768.613	46.24
768.792	47.27
768.972	47.84
769.151	48.92
769.33	48.58
769.51	48.27
769.689	48.25
769.868	48.42
770.047	48.09
770.226	49.15
770.406	48.74
770.585	48.4
770.764	47.63
770.943	46.97
771.122	47.04
771.301	47.24
771.48	47.43
771.66	48.42
771.839	48.48
772.018	48.6
772.197	47.3
772.376	47.45
772.555	47.31
772.734	47.36
772.913	48.09
773.092	46.86
773.271	46
773.449	45.76
773.628	45.65
773.807	45.92
773.986	46.13
774.165	47.5
774.344	47.48
774.523	48.18
774.701	48.42
774.88	47.29
775.059	47.84
775.238	48.51
775.417	48.82
775.595	49.52
775.774	48.67
775.953	48.47
776.131	47.75
776.31	47.3
776.489	47.28
776.667	48.06
776.846	48.57
777.025	48.23
777.203	48.68
777.382	47.34
777.56	47.03
777.739	47.38
777.917	47.71
778.096	47.34
778.274	46.98
778.453	46.35
778.631	44.95
778.81	45.57
778.988	46.19
779.166	46.42
779.345	46.78
779.523	45.46
779.702	45.13
779.88	44.03
780.058	45.11
780.237	45.31
780.415	45.71
780.593	45.09
780.771	45.22
780.95	45.45
781.128	45.46
781.306	46.44
781.484	47.11
781.662	46.59
781.841	46.9
782.019	46.55
782.197	47.37
782.375	46.21
782.553	47.76
782.731	46.96
782.909	46.41
783.087	45.56
783.265	44.9
783.443	46.24
783.621	46.84
783.799	47.96
783.977	46.73
784.155	45.4
784.333	46.55
784.511	46.08
784.689	47.02
784.867	47.31
785.045	48.47
785.223	48.35
785.4	47.46
785.578	47.63
785.756	46.63
785.934	46.92
786.112	47.73
786.289	45.99
786.467	46.59
786.645	46.56
786.823	45.93
787	45.04
787.178	46.25
787.356	45.5
787.533	46.18
787.711	46.07
787.889	46.52
788.066	46.04
788.244	46.26
788.421	45.2
788.599	44.99
788.776	44.92
788.954	44.99
789.131	44.1
789.309	43.68
789.486	43.5
789.664	43.47
789.841	43.99
790.019	43.33
790.196	44.78
790.373	45.95
790.551	45.26
790.728	46.04
790.906	45.18
791.083	45.64
791.26	46.24
791.437	46.53
791.615	47.03
791.792	45.89
791.969	47.49
792.146	48.05
792.324	47.3
792.501	47.38
792.678	48.16
792.855	50.11
793.032	48.89
793.209	49.83
793.387	48.62
793.564	48.81
793.741	49.15
793.918	48.69
794.095	47.56
794.272	47
794.449	49.11
794.626	48.57
794.803	47.3
794.98	48.3
795.157	47.49
795.334	47.65
795.511	48.51
795.688	47.22
795.864	47.21
796.041	46.87
796.218	47.05
796.395	45.5
796.572	44.5
796.749	44.43
796.925	43.49
797.102	44.17
797.279	43.55
797.456	41.95
797.632	42.62
797.809	42.32
797.986	41.56
798.162	41.29
798.339	40.23
798.516	39.91
798.692	39.8
798.869	40.66
799.046	39.13
799.222	40.3
799.399	40.85
799.575	40.71
799.752	39.65
799.928	39.93
800.105	39.69
800.281	39.95
800.458	40.51
800.634	41.19
800.811	39.45
800.987	40.4
801.163	41.28
801.34	41.1
801.516	42.47
801.692	43.28
801.869	43.62
802.045	43.01
802.221	44.01
802.398	43.78
802.574	44.35
802.75	47.93
802.926	47.78
803.103	45.11
803.279	45.59
803.455	44.25
803.631	43.03
803.807	43.43
803.983	44.81
804.16	44.74
804.336	44.31
804.512	43.06
804.688	40.25
804.864	39.01
805.04	40.21
805.216	39.98
805.392	39.91
805.568	40.94
805.744	41.03
805.92	40.12
806.096	42.27
806.272	42.39
806.448	41.74
806.623	41.49
806.799	42.76
806.975	44.19
807.151	44.54
807.327	45.22
807.503	45.72
807.678	45.94
807.854	45.17
808.03	43.38
808.206	44.16
808.381	44.08
808.557	43.3
808.733	41.83
808.908	40.97
809.084	39.75
809.26	40.16
809.435	40.08
809.611	39.5
809.787	40.25
809.962	38.57
810.138	37.99
810.313	38.23
810.489	40.3
810.664	42.57
810.84	43.32
811.015	44.58
811.191	44.08
811.366	43.73
811.542	43.48
811.717	42.43
811.892	44.13
812.068	43.99
812.243	44.9
812.419	45.19
812.594	43.97
812.769	43.09
812.944	43.01
813.12	43.03
813.295	43.69
813.47	42.86
813.645	44.7
813.821	42.59
813.996	43.54
814.171	42.63
814.346	41.68
814.521	43.08
814.697	42.92
814.872	42.28
815.047	42.32
815.222	44.42
815.397	46.06
815.572	45.62
815.747	48.88
815.922	49.95
816.097	50.89
816.272	49.95
816.447	47.76
816.622	46.6
816.797	46.12
816.972	44.52
817.147	42.33
817.322	40.85
817.496	41.3
817.671	39.01
817.846	38.01
818.021	36.84
818.196	38.76
818.371	41.1
818.545	41.51
818.72	43.26
818.895	45.16
819.069	44.15
819.244	44.52
819.419	43.34
819.594	43.2
819.768	43.17
819.943	43.42
820.117	43.08
820.292	41.56
820.467	41.66
820.641	41.29
820.816	40.8
820.99	41.2
821.165	41.84
821.339	41.59
821.514	41.23
821.688	41.53
821.863	41.75
822.037	41.45
822.212	41.43
822.386	41.37
822.56	41.13
822.735	41.15
822.909	40.95
823.084	40.9
823.258	40.99
823.432	41.38
823.606	40.65
823.781	40.25
823.955	40.17
824.129	40.16
824.303	40.23
824.478	40.56
824.652	40.62
824.826	40.85
825	40.58
825.174	41.22
825.348	40.4
825.523	41.35
825.697	41.63
825.871	41.68
826.045	41.61
826.219	41.69
826.393	41.45
826.567	41.3
826.741	40.87
826.915	40.5
827.089	40.15
827.263	40.54
827.437	40.54
827.611	40.93
827.784	40.66
827.958	40.91
828.132	40.95
828.306	40.12
828.48	39.97
828.654	40.08
828.827	40.25
829.001	39.63
829.175	39.74
829.349	39.84
829.522	39.18
829.696	39.94
829.87	39
830.044	38.59
830.217	39.47
830.391	38.56
830.565	39.46
830.738	39.94
830.912	40.21
831.085	40.38
831.259	40.91
831.432	40.29
831.606	39.2
831.779	39.42
831.953	41.09
832.126	41.62
832.3	43.72
832.473	42.97
832.647	43.31
832.82	42.97
832.994	42.78
833.167	41.84
833.34	41.4
833.514	41.76
833.687	41.67
833.86	41.09
834.034	40.37
834.207	39.1
834.38	38.91
834.553	38.21
834.727	39.13
834.9	39.1
835.073	38.33
835.246	39.11
835.419	39.03
835.593	38.76
835.766	38.53
835.939	37.94
836.112	38.54
836.285	39.17
836.458	38.72
836.631	38.62
836.804	37.5
836.977	37.32
837.15	37.24
837.323	36.93
837.496	36.41
837.669	35.85
837.842	37.14
838.015	37.9
838.188	36.87
838.361	36.87
838.533	34.45
838.706	34.76
838.879	36.24
839.052	35.68
839.225	36.19
839.398	36.76
839.57	37.73
839.743	35.56
839.916	36.25
840.088	35.77
840.261	36.31
840.434	36.58
840.607	37.02
840.779	35.7
840.952	33.99
841.124	33.41
841.297	34.17
841.47	32.26
841.642	34.14
841.815	32.05
841.987	34.52
842.16	33.91
842.332	33.79
842.505	35.02
842.677	35.98
842.85	36.85
843.022	36.54
843.194	35.53
843.367	34.67
843.539	34.34
843.712	34.18
843.884	33.39
844.056	34.45
844.229	31.35
844.401	30.64
844.573	29.39
844.745	31.31
844.918	32.62
845.09	34.85
845.262	36.06
845.434	33.04
845.606	30.69
845.779	29.56
845.951	26.03
846.123	29.57
846.295	29.03
846.467	34.58
846.639	33.61
846.811	25.79
846.983	21.09
847.155	21.49
847.327	26.01
847.499	29.21
847.671	25.83
847.843	26.69
848.015	26.89
848.187	31.16
848.359	30.77
848.531	30.82
848.703	38.46
848.875	45.94
849.047	44.08
849.218	42.81
849.39	44.27
849.562	43.66
849.734	48.57
849.905	47.29
850.077	34.97
850.249	31.81
850.421	28.83
850.592	28.15
850.764	21.5
850.936	20.42
851.107	22.88
851.279	22.25
851.451	26.1
851.622	23.28
851.794	25.94
851.965	30.62
852.137	28.25
852.308	31.17
852.48	29.98
852.651	34.86
852.823	37.47
852.994	32.24
853.166	28.38
853.337	33.24
853.509	34.66
853.68	31.29
853.851	33.85
854.023	30.19
854.194	27.52
854.365	25.85
854.537	20.58
854.708	22.55
854.879	20.77
855.05	24.99
855.222	14.9
855.393	12.25
855.564	15.54
855.735	17.67
855.906	19.29
856.078	28.13
856.249	36.89
856.42	39.12
856.591	42.13
856.762	41.45
856.933	38.73
857.104	46.3
857.275	44.61
857.446	46.65
857.617	43.99
857.788	46.62
857.959	42.05
858.13	32.48
858.301	32.42
858.472	29.94
858.643	38.35
858.814	36.96
858.985	29.69
859.155	31.09
859.326	25.94
859.497	26.48
859.668	22.68
859.839	25.19
860.009	28.12
860.18	32.69
860.351	29.77
860.522	26.16
860.692	31.51
860.863	33.92
861.034	38.5
861.204	32.7
861.375	31.73
861.546	34.43
861.716	31.27
861.887	33.29
862.057	33.78
862.228	35.22
862.398	32.06
862.569	32.92
862.739	35.05
862.91	25.25
863.08	31.99
863.251	29.27
863.421	31.18
863.592	29.99
863.762	29.46
863.932	27.92
864.103	28.46
864.273	32.9
864.443	29.15
864.614	25.87
864.784	31.1
864.954	27.24
865.125	26.77
865.295	27.83
865.465	30.18
865.635	23
865.805	25.18
865.976	26.28
866.146	19.67
866.316	20.06
866.486	24.17
866.656	24.53
866.826	26.89
866.996	30.85
867.166	27.76
867.336	22.6
867.506	23.7
867.676	23.41
867.846	18.8
868.016	19.9
868.186	19.3
868.356	17.69
868.526	12.55
868.696	13.41
868.866	10.86
869.036	13.21
869.206	15.56
869.376	23.71
869.545	16.97
869.715	16.43
869.885	20.43
870.055	18.41
870.224	26.03
870.394	25.31
870.564	29.58
870.734	32.76
870.903	27.37
871.073	24.42
871.243	25.02
871.412	30.59
871.582	32
871.751	28.18
871.921	32.2
872.091	25.05
872.26	31.01
872.43	25.68
872.599	28.28
872.769	31.12
872.938	37.73
873.108	35.41
873.277	32.38
873.446	30.38
873.616	29.93
873.785	32.05
873.955	30.21
874.124	31.82
874.293	35.65
874.463	28.87
874.632	31.22
874.801	27.99
874.971	26.09
875.14	26.11
875.309	29.69
875.478	31.38
875.647	29.72
875.817	30.18
875.986	25.65
876.155	20.37
876.324	28.81
876.493	27.08
876.662	27.71
876.831	26.51
877	23.23
877.17	19.2
877.339	23.4
877.508	21.34
877.677	23.27
877.846	27.08
878.015	24.93
878.184	24.31
878.352	26.94
878.521	27.9
878.69	30.84
878.859	29.82
879.028	30.65
879.197	29.28
879.366	30.31
879.534	31.86
879.703	31.9
879.872	36.69
880.041	34.84
880.21	32.43
880.378	35.47
880.547	36.02
880.716	38.35
880.884	39.07
881.053	37.98
881.222	37.46
881.39	36.87
881.559	36.59
881.727	36.5
881.896	35.86
882.065	36.14
882.233	34.51
882.402	33.47
882.57	32.29
882.739	32.24
882.907	32.5
883.076	31.78
883.244	31.63
883.412	31.39
883.581	31.12
883.749	30.88
883.918	30.91
884.086	31.4
884.254	32.19
884.423	32.38
884.591	32.01
884.759	32.02
884.927	33.37
885.096	33.96
885.264	33.36
885.432	31.85
885.6	31.04
885.769	28.74
885.937	27.83
886.105	25.8
886.273	26.48
886.441	24.88
886.609	23.19
886.777	22.61
886.945	20.21
887.113	21.7
887.281	21.32
887.449	24.02
887.617	22.93
887.785	22.88
887.953	23.89
888.121	25.08
888.289	23.07
888.457	23.73
888.625	19.4
888.793	19.63
888.961	20.11
889.129	16.12
889.296	15.48
889.464	18.92
889.632	19.38
889.8	18.12
889.967	13.95
890.135	21.53
