Data from JASIL_3020_Reflection_02.txt Node
Date: Mon Nov 09 10:44:11 EST 2015
User: Geneva
Spectrometer: USB4E03002
Autoset integration time: false
Trigger mode: 4
Integration Time (sec): 1.000000E-1
Scans to average: 10
Electric dark correction enabled: false
Nonlinearity correction enabled: false
Boxcar width: 5
Stray light correction enabled: false
XAxis mode: Wavelengths
Stop averaging: false
Number of Pixels in Spectrum: 3648
>>>>>Begin Spectral Data<<<<<
177.575	-7.48
177.794	-35.07
178.014	-48.38
178.233	-84.41
178.452	-142.51
178.672	-778.95
178.891	-1608.7
179.11	968.29
179.33	3981.82
179.549	319.23
179.768	249.4
179.987	1104.17
180.207	-1151.67
180.426	-835.82
180.645	-148.44
180.864	-94.96
181.084	-70.57
181.303	-65.51
181.522	-84.81
181.741	-68.93
181.96	-174.89
182.179	-63.28
182.398	-6.17
182.618	-98.48
182.837	-211.65
183.056	-595.79
183.275	481.48
183.494	-713.33
183.713	-1822.5
183.932	-756.38
184.151	-2169.7
184.37	-276.96
184.589	-3666.67
184.808	409.09
185.027	280.45
185.246	170.32
185.465	130.64
185.684	234.1
185.903	64.01
186.122	32.18
186.341	30.17
186.56	-50
186.779	-514.29
186.998	418.68
187.216	184.4
187.435	243.75
187.654	158.48
187.873	111.98
188.092	140.2
188.311	69.17
188.53	24.87
188.748	59.21
188.967	-76.19
189.186	266.67
189.405	202.81
189.623	228.04
189.842	379.37
190.061	-4980
190.28	-140.43
190.498	-155.24
190.717	-46.19
190.936	-32.18
191.154	-50
191.373	-27.14
191.592	106.99
191.81	38.86
192.029	-48.68
192.248	-72.29
192.466	-7.96
192.685	0
192.904	-39.13
193.122	130.43
193.341	-1360
193.559	508.33
193.778	93.18
193.996	525
194.215	304.26
194.433	189.91
194.652	134.18
194.87	138.94
195.089	154.43
195.307	350.67
195.526	264.2
195.744	288.29
195.963	480.88
196.181	-1338.3
196.399	-350
196.618	-343.07
196.836	-199.54
197.055	-154.21
197.273	-83.5
197.491	-92
197.71	-38.87
197.928	-49.39
198.146	0.82
198.365	15.02
198.583	-1555.56
198.801	109.73
199.019	105.02
199.238	81.47
199.456	137.55
199.674	227.01
199.892	257.41
200.111	234
200.329	264.29
200.547	-1558.33
200.765	88.31
200.983	64.9
201.202	79.17
201.42	56.7
201.638	72.38
201.856	75.56
202.074	53.54
202.292	57.14
202.51	-112.5
202.728	-2000
202.946	81.82
203.165	-1278.95
203.383	746.15
203.601	2227.27
203.819	-416.28
204.037	-180
204.255	-7
204.473	24.81
204.691	-64.71
204.909	-390.48
205.127	-545.45
205.345	-535.29
205.562	233.33
205.78	158
205.998	349.28
206.216	213.21
206.434	-51.69
206.652	-2342.86
206.87	627.12
207.088	250.91
207.306	304.46
207.523	277.27
207.741	295.6
207.959	252.25
208.177	186.75
208.395	311.71
208.612	250.34
208.83	227.83
209.048	215.1
209.266	322.79
209.483	686.89
209.701	-1813.79
209.919	15900
210.136	521.82
210.354	2608.33
210.572	-678.72
210.79	-844.44
211.007	305.84
211.225	234.5
211.442	1026.32
211.66	-284.43
211.878	-334.21
212.095	-456.6
212.313	-12733.33
212.53	-322.95
212.748	-81.04
212.966	-868.29
213.183	-14000
213.401	-56.19
213.618	-56.63
213.836	-44.62
214.053	-22.07
214.271	-113.42
214.488	-27.95
214.705	-83
214.923	-103.08
215.14	-274.02
215.358	-98.88
215.575	-13.48
215.793	-225.76
216.01	-500
216.227	-277.78
216.445	129.86
216.662	227.55
216.879	131.32
217.097	148.83
217.314	270.16
217.531	413.79
217.749	-60
217.966	-241.54
218.183	-71.98
218.4	-62
218.618	-81.49
218.835	-48.81
219.052	-29.15
219.269	-37.06
219.487	-33.76
219.704	-59.94
219.921	-106.21
220.138	-223.46
220.355	-123.35
220.572	-11700
220.79	437.04
221.007	362.5
221.224	536.46
221.441	334.9
221.658	-169.19
221.875	-60.45
222.092	21.32
222.309	47.01
222.526	39.29
222.743	3.64
222.96	9.38
223.177	30.05
223.394	31.85
223.611	38.19
223.828	32.05
224.045	41.88
224.262	38.88
224.479	21.92
224.696	13.98
224.913	8.96
225.13	22.67
225.347	28.38
225.564	22.52
225.781	11.99
225.997	15.3
226.214	11.06
226.431	2.48
226.648	4.79
226.865	5.66
227.082	7.11
227.298	9.12
227.515	3.85
227.732	3.39
227.949	-2.33
228.165	1.93
228.382	2.26
228.599	5.63
228.816	2.81
229.032	-0.23
229.249	-3.2
229.466	-1.02
229.682	-8.87
229.899	-2.74
230.116	-6.32
230.332	6.89
230.549	-8.99
230.765	-9.38
230.982	-14.97
231.199	-4.12
231.415	-11.68
231.632	-3.08
231.848	-13.85
232.065	-5.38
232.281	-24.98
232.498	-20.36
232.714	-21.36
232.931	-9.61
233.147	-18.46
233.364	-19.83
233.58	-40.32
233.797	-42.67
234.013	-52.85
234.23	-49.49
234.446	-41.14
234.662	-17.57
234.879	-22.07
235.095	-7.46
235.312	-12.31
235.528	-16.22
235.744	-17.33
235.961	-3.75
236.177	-0.26
236.393	6.57
236.61	-8.14
236.826	-14.9
237.042	-23.9
237.258	-15.44
237.475	-32.34
237.691	-31.93
237.907	-22.32
238.123	-20.03
238.339	-23.25
238.556	-15.88
238.772	-15.67
238.988	-10.75
239.204	-9.04
239.42	-6.11
239.636	-11.25
239.853	-2.06
240.069	-2.64
240.285	-8.83
240.501	-5.43
240.717	-1.94
240.933	-5.67
241.149	-3.76
241.365	-3.94
241.581	-4.77
241.797	-2.21
242.013	-0.02
242.229	-2.7
242.445	-3.55
242.661	0.85
242.877	1.25
243.093	-3.67
243.309	-0.47
243.525	-2.82
243.741	5.54
243.957	4.88
244.173	2.67
244.388	0.96
244.604	2.01
244.82	6.07
245.036	5.51
245.252	5.79
245.468	7.98
245.683	8.29
245.899	7.95
246.115	7.09
246.331	7.95
246.547	7.77
246.762	6.43
246.978	5.74
247.194	2.95
247.409	2.06
247.625	-0.57
247.841	-2.24
248.057	-3.35
248.272	-5.07
248.488	-7.21
248.703	-8.87
248.919	-9.92
249.135	-6.97
249.35	-9.5
249.566	0.25
249.782	2.35
249.997	2.63
250.213	6.24
250.428	9.55
250.644	11.98
250.859	8.95
251.075	9.57
251.29	6.81
251.506	7.9
251.721	8.85
251.937	2.93
252.152	5.36
252.368	3.86
252.583	1.34
252.798	4.22
253.014	2.09
253.229	7.89
253.445	-0.5
253.66	-2.64
253.875	-7.44
254.091	-13.29
254.306	-11.37
254.521	-8.57
254.737	-13.05
254.952	-6.52
255.167	-15.42
255.383	-16.55
255.598	-17.59
255.813	-9.66
256.028	-8.6
256.244	-4.11
256.459	1.99
256.674	-0.1
256.889	-2.57
257.104	1.87
257.32	-0.64
257.535	-0.02
257.75	0.99
257.965	2.86
258.18	4.7
258.395	4.8
258.61	4.73
258.826	3.34
259.041	3.87
259.256	2.71
259.471	0.98
259.686	0.99
259.901	1.93
260.116	-0.47
260.331	-2.23
260.546	-5.33
260.761	-5.37
260.976	-5.36
261.191	-6.56
261.406	-5.36
261.621	-2.31
261.836	-0.88
262.05	-1.08
262.265	-2.93
262.48	0.12
262.695	-0.29
262.91	1.51
263.125	1.49
263.34	-3.32
263.555	-0.69
263.769	-3.85
263.984	0.43
264.199	2.6
264.414	-1.49
264.629	-3.62
264.843	-3.14
265.058	-6.66
265.273	-8.26
265.488	-8.03
265.702	-7.56
265.917	-10.47
266.132	-4.94
266.346	-9.67
266.561	-10.82
266.776	-10.26
266.99	-10.26
267.205	-7.69
267.42	-8.2
267.634	-6.38
267.849	-3.84
268.063	-2.13
268.278	1.34
268.492	-1.48
268.707	0.46
268.922	0.83
269.136	3.28
269.351	5.38
269.565	4.2
269.78	3.39
269.994	2.17
270.209	-0
270.423	0.48
270.637	0.83
270.852	3.43
271.066	4.11
271.281	1.59
271.495	2.45
271.709	1.99
271.924	1.81
272.138	0.6
272.353	-1.76
272.567	-2.16
272.781	-2.59
272.996	-4.59
273.21	-8.86
273.424	-8.1
273.638	-4.65
273.853	-7.95
274.067	-7.25
274.281	-8.76
274.495	-2.84
274.71	-1.21
274.924	-0.34
275.138	1.37
275.352	0.28
275.566	0.41
275.781	-3.01
275.995	-4.38
276.209	-5.94
276.423	-7.22
276.637	-7.24
276.851	-9.87
277.065	-6.92
277.279	-5.1
277.493	-6.2
277.707	-6.33
277.921	-3.49
278.135	-3.86
278.349	-1.1
278.563	-3.24
278.777	-2.65
278.991	-0.71
279.205	2.32
279.419	-0.02
279.633	1.71
279.847	1.37
280.061	0.81
280.275	-4.19
280.489	-2.15
280.703	-6.64
280.917	-2.98
281.131	-3.89
281.344	-7.93
281.558	-10.14
281.772	-9.84
281.986	-11.92
282.2	-14.02
282.414	-11.17
282.627	-6.82
282.841	-8.12
283.055	-5.67
283.269	-5.67
283.482	-5.88
283.696	-3.05
283.91	-0.95
284.123	1.41
284.337	1.3
284.551	2.39
284.764	3.28
284.978	3.77
285.192	4.72
285.405	4.71
285.619	5.61
285.833	6.84
286.046	6.84
286.26	4.67
286.473	2.51
286.687	3.16
286.9	5.36
287.114	4.09
287.327	-0.55
287.541	-2.3
287.754	-1.38
287.968	0.47
288.181	-0.65
288.395	0.34
288.608	1.22
288.822	0.26
289.035	0.14
289.248	-1.83
289.462	-1.16
289.675	-0.55
289.889	-1.34
290.102	-2.15
290.315	-3.64
290.529	-3.77
290.742	-2.64
290.955	-6.32
291.169	-5.36
291.382	-5.34
291.595	-3.61
291.808	-4.8
292.022	-4.43
292.235	-2.75
292.448	-1.05
292.661	-1.17
292.875	-0.77
293.088	-2.59
293.301	1.24
293.514	0.44
293.727	0.84
293.94	-0.37
294.153	-0.76
294.367	0.7
294.58	0.9
294.793	1.11
295.006	1.33
295.219	1.91
295.432	0.6
295.645	0.53
295.858	1.86
296.071	1.77
296.284	0.18
296.497	1.52
296.71	0.42
296.923	1.38
297.136	-1.23
297.349	-2.73
297.562	-5.35
297.775	-4.84
297.988	-6.61
298.201	-7.68
298.414	-8.97
298.626	-6.71
298.839	-7.75
299.052	-4.89
299.265	-7.26
299.478	-6.07
299.691	-5
299.903	-5.29
300.116	-5.46
300.329	-1.95
300.542	0.09
300.755	-1.61
300.967	-2.82
301.18	-3.07
301.393	-3.78
301.605	-2.3
301.818	-2.97
302.031	-2.26
302.243	3.79
302.456	4.96
302.669	1.62
302.881	0.87
303.094	1.28
303.307	2
303.519	-0.27
303.732	-2.85
303.944	-3.54
304.157	-2.53
304.37	-4.08
304.582	-8.94
304.795	-11.16
305.007	-9.38
305.22	-11.66
305.432	-10.76
305.645	-10.09
305.857	-9.97
306.069	-7.25
306.282	-7.3
306.494	-6.27
306.707	-6.96
306.919	-2.64
307.132	-0.33
307.344	-1.55
307.556	0.95
307.769	0.79
307.981	0.75
308.193	3.65
308.406	4.96
308.618	4.67
308.83	4.37
309.043	5.62
309.255	2.76
309.467	3.17
309.679	3.26
309.892	2.04
310.104	3.57
310.316	3.77
310.528	2.84
310.74	1.06
310.953	2.42
311.165	1.96
311.377	3.06
311.589	3.96
311.801	3.97
312.013	4.42
312.225	4.83
312.437	3.64
312.649	0.43
312.862	-0.04
313.074	-0.06
313.286	0.14
313.498	2.41
313.71	3.29
313.922	3.75
314.134	3.52
314.346	4.95
314.558	3.61
314.77	3.16
314.982	5.54
315.193	9.1
315.405	9.49
315.617	9.83
315.829	9.97
316.041	10.14
316.253	11.43
316.465	10.31
316.677	10.81
316.888	9.95
317.1	11.62
317.312	9.94
317.524	8.11
317.736	7.44
317.947	7
318.159	7.7
318.371	7.23
318.583	4.81
318.794	7.88
319.006	3.87
319.218	3.76
319.43	2.13
319.641	5.12
319.853	4.64
320.064	5.07
320.276	5.53
320.488	4.86
320.699	5.26
320.911	8.49
321.123	8.12
321.334	9.79
321.546	12.77
321.757	15.45
321.969	16.65
322.18	15.07
322.392	17.59
322.603	14.86
322.815	11.17
323.026	11.46
323.238	9.84
323.449	7
323.661	7.76
323.872	3.47
324.083	2.36
324.295	-0.92
324.506	0.68
324.718	-0.37
324.929	-1.81
325.14	0.2
325.352	-2.02
325.563	-2.37
325.774	-1.84
325.986	-1.56
326.197	1.85
326.408	0.56
326.62	3.86
326.831	3.21
327.042	4.37
327.253	8.37
327.464	8
327.676	9.54
327.887	9.81
328.098	9.72
328.309	9.34
328.52	10.04
328.732	10.92
328.943	9.31
329.154	9.31
329.365	4.57
329.576	1.78
329.787	0.24
329.998	-1.71
330.209	-4.27
330.42	-4.04
330.631	-0.34
330.842	-1.41
331.053	-1.35
331.264	-1.13
331.475	-1.91
331.686	1.88
331.897	1.83
332.108	2.13
332.319	3.86
332.53	5.38
332.741	6.72
332.952	3.48
333.163	3.23
333.374	3.39
333.585	3.65
333.795	4.99
334.006	3.58
334.217	5.42
334.428	6.16
334.639	4.85
334.849	4.82
335.06	2.83
335.271	4.45
335.482	5.33
335.692	6.21
335.903	5.89
336.114	6.34
336.325	4.22
336.535	5.35
336.746	5.43
336.957	5.32
337.167	4.41
337.378	5.2
337.589	4.66
337.799	2.86
338.01	-0.14
338.22	0.92
338.431	1.36
338.642	3.48
338.852	0.96
339.063	1.32
339.273	1.28
339.484	2.49
339.694	1.04
339.905	0.55
340.115	1.94
340.326	4.62
340.536	2.69
340.746	0.47
340.957	0.36
341.167	1.71
341.378	0.92
341.588	2.63
341.799	2.18
342.009	4.01
342.219	3.97
342.43	4.93
342.64	3.45
342.85	5.35
343.061	5.6
343.271	4.14
343.481	3.08
343.691	2.52
343.902	1.97
344.112	2.07
344.322	1.14
344.532	1.71
344.743	0.19
344.953	1.98
345.163	3.6
345.373	5.45
345.583	6.4
345.793	6.29
346.004	6.01
346.214	6.14
346.424	6.4
346.634	6.62
346.844	7.2
347.054	9.02
347.264	6.71
347.474	3.54
347.684	1.69
347.894	1.85
348.104	3.43
348.314	4.8
348.524	4.02
348.734	3.87
348.944	3.52
349.154	3.35
349.364	4.1
349.574	5.85
349.784	5.14
349.994	7.4
350.204	8.4
350.413	5.48
350.623	4.98
350.833	3.71
351.043	3.17
351.253	2
351.463	1.41
351.672	-1.34
351.882	-1.45
352.092	0.49
352.302	-0.3
352.511	-0.59
352.721	2.11
352.931	4.44
353.141	6.32
353.35	7.96
353.56	11.89
353.77	10.62
353.979	10.93
354.189	11.66
354.399	12.28
354.608	12.54
354.818	10.35
355.027	8.71
355.237	4.79
355.447	4.26
355.656	1.17
355.866	-2.05
356.075	-2.17
356.285	-0.92
356.494	-1.37
356.704	-2.22
356.913	-2.88
357.123	-0.69
357.332	-0.6
357.542	1.33
357.751	1.61
357.96	1.82
358.17	3.75
358.379	3.55
358.589	3.59
358.798	1.76
359.007	3.25
359.217	3.5
359.426	4.34
359.635	4.36
359.845	4.02
360.054	4.28
360.263	4.55
360.472	4.25
360.682	5.13
360.891	4.33
361.1	4.94
361.309	3.63
361.519	2.12
361.728	1.66
361.937	1.88
362.146	1.71
362.355	1.82
362.564	4.18
362.774	4.54
362.983	4.29
363.192	4.2
363.401	3.09
363.61	3.64
363.819	4.02
364.028	3.36
364.237	4.22
364.446	5.73
364.655	4.96
364.864	4.69
365.073	3.7
365.282	4.29
365.491	5.89
365.7	8.48
365.909	8.83
366.118	9.98
366.327	10.94
366.536	11.93
366.745	11.05
366.954	11.59
367.162	10.38
367.371	11.39
367.58	10.26
367.789	8.18
367.998	7.41
368.207	6.96
368.415	5.95
368.624	4.5
368.833	3.21
369.042	3.06
369.25	1.64
369.459	1.16
369.668	-0.06
369.877	0.16
370.085	1.01
370.294	1.93
370.503	1.58
370.711	1.44
370.92	1.93
371.129	1.4
371.337	2.04
371.546	4.41
371.754	5.39
371.963	6.45
372.171	7.35
372.38	6.55
372.589	4.2
372.797	4.4
373.006	4.24
373.214	4.03
373.423	5.2
373.631	5.43
373.84	3.37
374.048	2.83
374.256	2.62
374.465	3.66
374.673	3.96
374.882	4.82
375.09	4.96
375.298	4.86
375.507	5.54
375.715	6.15
375.923	5.84
376.132	7.5
376.34	7.79
376.548	6.73
376.757	5.99
376.965	6.03
377.173	6.39
377.381	6.82
377.59	7.43
377.798	7.07
378.006	5.15
378.214	5.9
378.423	5.03
378.631	5.66
378.839	5.71
379.047	5.98
379.255	6.96
379.463	6.33
379.671	5.93
379.879	7.47
380.088	7.34
380.296	7.71
380.504	7.74
380.712	8.18
380.92	7.06
381.128	7.83
381.336	5.61
381.544	5
381.752	4.83
381.96	5.34
382.168	3.26
382.376	4.34
382.584	2.77
382.791	2.82
382.999	2.06
383.207	2.8
383.415	2.46
383.623	3.28
383.831	2.47
384.039	3.62
384.247	3.34
384.454	2.03
384.662	1.39
384.87	3.76
385.078	2.65
385.285	2.17
385.493	1.03
385.701	1.16
385.909	2.2
386.116	2.78
386.324	1.76
386.532	1.06
386.739	2.41
386.947	3.24
387.155	2.45
387.362	2.19
387.57	2.77
387.778	2.77
387.985	2.02
388.193	2.08
388.4	1.67
388.608	1.76
388.816	0.9
389.023	1.35
389.231	0.7
389.438	-0.2
389.646	-0.53
389.853	-0.56
390.061	-0.33
390.268	1
390.475	0.74
390.683	1.36
390.89	0.36
391.098	1.59
391.305	2.12
391.512	2.62
391.72	3.76
391.927	4.52
392.135	4.82
392.342	4.56
392.549	3.22
392.756	3.28
392.964	4.72
393.171	5.29
393.378	5.82
393.586	4.65
393.793	4.22
394	4.31
394.207	4.54
394.414	5.26
394.622	5.89
394.829	5.8
395.036	7.13
395.243	5.8
395.45	6.35
395.657	3.86
395.864	4.15
396.072	3.15
396.279	2.08
396.486	2.32
396.693	0.69
396.9	-0.04
397.107	1.19
397.314	-0.77
397.521	-1.03
397.728	-1.15
397.935	0.1
398.142	0.1
398.349	-0.6
398.556	-0.96
398.763	-2.76
398.97	-1.36
399.177	-1.11
399.383	0.6
399.59	0.53
399.797	0.33
400.004	0.7
400.211	0.68
400.418	0.08
400.625	1.41
400.831	1.83
401.038	2.87
401.245	3.37
401.452	4.02
401.658	1.89
401.865	2.76
402.072	3.47
402.279	4.23
402.485	3.49
402.692	5.45
402.899	5.69
403.105	5.53
403.312	5.71
403.519	5.28
403.725	5.27
403.932	6.03
404.138	6.86
404.345	6.08
404.552	5.08
404.758	6.61
404.965	5.43
405.171	4.6
405.378	4.62
405.584	4.43
405.791	2.99
405.997	3.03
406.204	3.08
406.41	2.27
406.617	2.45
406.823	2.95
407.029	2.68
407.236	3.16
407.442	3.22
407.649	4.31
407.855	5.16
408.061	5.75
408.268	5.56
408.474	4.19
408.68	4.05
408.887	4.45
409.093	3.79
409.299	2.88
409.505	2.66
409.712	2.82
409.918	2.89
410.124	3.01
410.33	2.92
410.537	2.83
410.743	2.23
410.949	1.92
411.155	2.95
411.361	3.22
411.567	2.74
411.773	3.17
411.98	3.72
412.186	2.3
412.392	1.29
412.598	0.83
412.804	0.04
413.01	1.28
413.216	0.51
413.422	-0.16
413.628	0
413.834	0.34
414.04	-0.47
414.246	-0.92
414.452	-0.24
414.658	0.47
414.864	1.54
415.07	2.11
415.275	1.72
415.481	1.39
415.687	0.86
415.893	0.3
416.099	0.94
416.305	1.19
416.511	1.63
416.716	1.92
416.922	1.51
417.128	1.46
417.334	1.64
417.539	1.41
417.745	2.08
417.951	2.67
418.157	2.96
418.362	3.07
418.568	2.69
418.774	2.35
418.979	1.86
419.185	2.33
419.391	1.73
419.596	1.63
419.802	2.02
420.008	1.84
420.213	1
420.419	1.25
420.624	1.02
420.83	0.98
421.035	0.92
421.241	1.27
421.446	0.48
421.652	0.85
421.857	0.74
422.063	0.93
422.268	1.1
422.474	1.58
422.679	1.09
422.885	1.11
423.09	1.22
423.295	1.32
423.501	0.99
423.706	1.54
423.911	1.73
424.117	1.58
424.322	1.29
424.527	1.28
424.733	1.86
424.938	2.51
425.143	2.36
425.349	2.84
425.554	2.66
425.759	3.25
425.964	3.27
426.169	3.01
426.375	3.5
426.58	3.74
426.785	3.48
426.99	2.5
427.195	2.12
427.4	2.2
427.605	1.89
427.811	2.23
428.016	1.3
428.221	0.78
428.426	0.12
428.631	-0.04
428.836	-0.38
429.041	-0.41
429.246	0.6
429.451	0.56
429.656	-0.22
429.861	-0.66
430.066	-0.74
430.271	-0.07
430.476	1.03
430.681	1.96
430.886	1.92
431.09	1.64
431.295	1.55
431.5	0.86
431.705	0.73
431.91	1.37
432.115	1.79
432.32	1.23
432.524	1.67
432.729	0.94
432.934	0.82
433.139	1.42
433.343	1.4
433.548	1.52
433.753	1.27
433.958	1.12
434.162	0.5
434.367	0.86
434.572	1.01
434.776	0.46
434.981	-0.3
435.186	-0.68
435.39	-1.28
435.595	-0.57
435.799	-0.28
436.004	-0.48
436.209	-0.05
436.413	0.06
436.618	-0.77
436.822	-0.21
437.027	-0.45
437.231	0.18
437.436	-0.01
437.64	-0.11
437.845	0.09
438.049	-0.04
438.253	0.37
438.458	0.46
438.662	0.67
438.867	0.91
439.071	0.7
439.275	0.68
439.48	0.51
439.684	0.53
439.888	0.73
440.093	0.16
440.297	0.46
440.501	0.56
440.706	0.43
440.91	0.89
441.114	0.51
441.318	0.58
441.523	0.33
441.727	0.42
441.931	0.68
442.135	0.37
442.339	1.15
442.543	1.05
442.748	0.98
442.952	1.13
443.156	0.98
443.36	1.28
443.564	1.32
443.768	2.24
443.972	2.62
444.176	2.2
444.38	2.63
444.584	2.61
444.788	2.66
444.992	2.55
445.196	2.07
445.4	1.99
445.604	1.83
445.808	1.39
446.012	0.77
446.216	0.25
446.42	0.23
446.624	-0.01
446.828	-0.98
447.032	-1.04
447.235	-1.57
447.439	-1.17
447.643	-0.72
447.847	-0.67
448.051	0.13
448.254	-0.08
448.458	0.09
448.662	0.93
448.866	0.55
449.069	1.34
449.273	0.77
449.477	1.48
449.681	1.9
449.884	1.55
450.088	1.7
450.292	2.02
450.495	2.88
450.699	2.53
450.902	2.16
451.106	2.42
451.31	2.33
451.513	2.32
451.717	2.29
451.92	1.84
452.124	1.86
452.327	1.72
452.531	1.08
452.734	1.1
452.938	1.61
453.141	1.36
453.345	1.56
453.548	1.09
453.752	1.82
453.955	1.8
454.158	1.37
454.362	1.68
454.565	1.72
454.769	1.63
454.972	1.06
455.175	0.29
455.379	0.05
455.582	-0.12
455.785	0.46
455.988	-0.12
456.192	-0.1
456.395	0.2
456.598	0.34
456.801	0.36
457.005	0.59
457.208	0.57
457.411	1.31
457.614	2.08
457.817	1.71
458.021	1.67
458.224	1.75
458.427	2.09
458.63	2.3
458.833	2.23
459.036	2.51
459.239	2.27
459.442	1.96
459.645	1.97
459.848	2.23
460.051	2.18
460.254	2.12
460.457	2
460.66	1.4
460.863	1.35
461.066	0.73
461.269	0.14
461.472	0.13
461.675	0.76
461.878	0.42
462.081	-0.3
462.284	-0.16
462.486	-0.92
462.689	-0.7
462.892	0.24
463.095	0.49
463.298	0.86
463.5	1.33
463.703	1.58
463.906	1.4
464.109	1.77
464.311	1.52
464.514	1.69
464.717	2.2
464.92	2.38
465.122	1.76
465.325	1.66
465.528	1.3
465.73	1.1
465.933	1.96
466.135	1.99
466.338	1.29
466.541	1.67
466.743	1.34
466.946	1.73
467.148	1.42
467.351	1.78
467.553	1.8
467.756	1.47
467.958	1.13
468.161	0.58
468.363	0.93
468.566	1.17
468.768	1.34
468.971	1.46
469.173	1.11
469.375	1.07
469.578	1.03
469.78	0.09
469.983	0.97
470.185	1.64
470.387	1.45
470.59	1.08
470.792	0.94
470.994	0.98
471.196	1.68
471.399	2.44
471.601	2.37
471.803	1.62
472.005	2
472.208	1.27
472.41	1.48
472.612	1.01
472.814	1.1
473.016	2.19
473.218	2.12
473.421	1.56
473.623	1.05
473.825	1.47
474.027	2.01
474.229	2.44
474.431	2.39
474.633	2.3
474.835	2.43
475.037	2.19
475.239	1.97
475.441	1.28
475.643	0.69
475.845	0.37
476.047	0.08
476.249	-0.47
476.451	-0.98
476.653	-0.5
476.855	-0.61
477.057	-0.27
477.258	-0.21
477.46	-0.23
477.662	-0.59
477.864	0.7
478.066	1.47
478.268	1.13
478.469	1.25
478.671	1.63
478.873	1.54
479.075	1.4
479.276	1.58
479.478	1.46
479.68	1.57
479.882	1.99
480.083	1.16
480.285	1
480.487	1.64
480.688	1.63
480.89	1.29
481.091	1.18
481.293	1.5
481.495	1.34
481.696	1.48
481.898	1.24
482.099	1.54
482.301	1.76
482.502	1.63
482.704	1.47
482.905	1.74
483.107	1.89
483.308	1.83
483.51	1.76
483.711	1.71
483.913	1.7
484.114	1.63
484.315	1.44
484.517	1.33
484.718	1.29
484.92	1.35
485.121	1.14
485.322	1.08
485.524	1.25
485.725	1.46
485.926	1.65
486.127	1.59
486.329	1.54
486.53	1.5
486.731	1.72
486.932	1.91
487.134	1.78
487.335	1.8
487.536	1.95
487.737	1.94
487.938	1.74
488.139	1.69
488.341	1.92
488.542	1.97
488.743	1.89
488.944	1.9
489.145	1.66
489.346	1.93
489.547	1.63
489.748	1.42
489.949	1.34
490.15	1.12
490.351	1.16
490.552	1
490.753	0.99
490.954	1.18
491.155	1.07
491.356	0.99
491.557	1.07
491.758	1.47
491.959	1.38
492.159	1.29
492.36	1.49
492.561	1.29
492.762	1.28
492.963	1.52
493.164	1.29
493.364	0.82
493.565	0.77
493.766	0.6
493.967	0.3
494.167	0.1
494.368	0.41
494.569	0.25
494.769	0.25
494.97	0.38
495.171	0.58
495.371	0.81
495.572	1.02
495.773	1.2
495.973	1.08
496.174	1.26
496.375	1.33
496.575	0.99
496.776	1.11
496.976	0.76
497.177	1.07
497.377	0.74
497.578	0.53
497.778	0.9
497.979	0.77
498.179	1.07
498.38	0.89
498.58	0.77
498.78	1.24
498.981	1
499.181	1.15
499.382	0.88
499.582	0.73
499.782	0.87
499.983	0.58
500.183	0.7
500.383	0.54
500.584	0.73
500.784	1.43
500.984	1.23
501.184	1.27
501.385	1.71
501.585	1.84
501.785	2.33
501.985	2.32
502.185	2.79
502.386	3.27
502.586	3.43
502.786	3.16
502.986	2.88
503.186	2.98
503.386	3.26
503.586	2.98
503.786	2.68
503.987	2
504.187	1.52
504.387	1.06
504.587	0.89
504.787	0.27
504.987	0.55
505.187	1.1
505.387	1.08
505.587	1.22
505.786	0.95
505.986	1.17
506.186	1.91
506.386	2.46
506.586	2.64
506.786	2.66
506.986	2.98
507.186	2.76
507.386	2.53
507.585	2.7
507.785	2.85
507.985	3.24
508.185	3.12
508.384	3.32
508.584	3.59
508.784	3.46
508.984	3.36
509.183	3.5
509.383	3.4
509.583	3.18
509.782	3.32
509.982	3.17
510.182	3.08
510.381	3.05
510.581	2.64
510.781	2.2
510.98	2.88
511.18	2.89
511.379	2.61
511.579	3.09
511.778	3.47
511.978	3.53
512.177	3.46
512.377	3.74
512.576	4.28
512.776	4.35
512.975	5.14
513.175	4.3
513.374	4.4
513.573	4.85
513.773	4.33
513.972	4
514.172	3.56
514.371	3.51
514.57	3.09
514.77	3.02
514.969	2.9
515.168	2.37
515.367	2.66
515.567	2.63
515.766	2.07
515.965	2.94
516.164	3.01
516.364	3.75
516.563	3.85
516.762	4.4
516.961	4.08
517.16	4.16
517.359	4.22
517.559	4.22
517.758	4.17
517.957	4.72
518.156	4.76
518.355	5.03
518.554	4.62
518.753	4.75
518.952	4.28
519.151	4.71
519.35	5.1
519.549	5.45
519.748	5.68
519.947	5.74
520.146	5.73
520.345	5.64
520.544	5.48
520.743	5.82
520.942	5.9
521.141	6.49
521.339	6.59
521.538	6.66
521.737	7.02
521.936	7.19
522.135	7.45
522.333	7.74
522.532	7.68
522.731	7.78
522.93	7.34
523.129	7
523.327	7.24
523.526	6.9
523.725	6.94
523.923	6.62
524.122	6.89
524.321	7.16
524.519	6.84
524.718	6.64
524.917	6.53
525.115	7.02
525.314	7.03
525.512	6.81
525.711	6.83
525.909	6.8
526.108	6.7
526.306	6.63
526.505	6.51
526.703	6.55
526.902	6.69
527.1	6.7
527.299	6.74
527.497	7.01
527.696	7.08
527.894	7.16
528.092	7.24
528.291	7.15
528.489	7.26
528.688	7.24
528.886	7.33
529.084	7.67
529.283	7.63
529.481	7.72
529.679	7.66
529.877	7.48
530.076	7.63
530.274	7.78
530.472	8.08
530.67	7.95
530.869	8.07
531.067	8.07
531.265	8
531.463	8.48
531.661	8.62
531.859	8.82
532.057	9.08
532.255	9.01
532.454	9.07
532.652	8.96
532.85	8.82
533.048	8.86
533.246	8.91
533.444	8.64
533.642	8.7
533.84	8.56
534.038	8.25
534.236	8.08
534.434	8.34
534.632	8.25
534.83	8.76
535.027	9.1
535.225	8.88
535.423	9.51
535.621	9.77
535.819	9.53
536.017	9.38
536.215	9.76
536.412	10.21
536.61	10.16
536.808	10.52
537.006	10.31
537.203	10.27
537.401	10.75
537.599	10.37
537.797	10.71
537.994	10.83
538.192	10.97
538.39	11.03
538.587	11
538.785	10.68
538.983	10.34
539.18	10.35
539.378	10.35
539.575	10.49
539.773	10.13
539.97	10.07
540.168	10.02
540.366	10.03
540.563	9.98
540.761	10.11
540.958	10.3
541.155	10.42
541.353	10.53
541.55	10.41
541.748	10.2
541.945	10.57
542.143	10.46
542.34	10.73
542.537	10.87
542.735	10.92
542.932	10.72
543.129	11.04
543.327	10.86
543.524	11.14
543.721	11.46
543.919	11.85
544.116	11.7
544.313	11.94
544.51	11.95
544.708	12.15
544.905	11.78
545.102	11.8
545.299	11.65
545.496	11.96
545.693	11.38
545.891	11.36
546.088	11.49
546.285	11.7
546.482	11.85
546.679	11.85
546.876	11.78
547.073	12.62
547.27	13.05
547.467	13.09
547.664	13.61
547.861	13.83
548.058	14.15
548.255	14.06
548.452	13.71
548.649	13.63
548.846	13.73
549.043	13.81
549.24	13.59
549.437	12.81
549.633	13.41
549.83	12.96
550.027	13.32
550.224	13.51
550.421	13.58
550.618	14.41
550.814	14.85
551.011	15.08
551.208	15.05
551.405	15.21
551.601	15.23
551.798	15.67
551.995	15.68
552.191	15.78
552.388	15.59
552.585	15.56
552.781	15.18
552.978	14.76
553.175	14.74
553.371	15.23
553.568	15.06
553.764	15.7
553.961	15.2
554.157	15.43
554.354	16.06
554.55	16.07
554.747	16.54
554.943	16.47
555.14	16.31
555.336	16.53
555.533	16.54
555.729	16.23
555.926	16.25
556.122	16.89
556.318	17.41
556.515	16.86
556.711	17.18
556.907	17.04
557.104	16.95
557.3	17.97
557.496	18.52
557.693	18.69
557.889	19.12
558.085	19.56
558.281	18.98
558.478	19.23
558.674	20.07
558.87	20.55
559.066	20.64
559.262	21.77
559.459	21.35
559.655	20.43
559.851	19.97
560.047	20.97
560.243	20.62
560.439	20.51
560.635	20.06
560.831	19.84
561.027	19.39
561.223	19.26
561.419	18.62
561.615	18.2
561.811	18.68
562.007	18.7
562.203	18.52
562.399	18.45
562.595	18.53
562.791	18.61
562.987	18.04
563.183	18.45
563.379	18.12
563.575	17.8
563.771	18.32
563.966	17.88
564.162	18.33
564.358	17.65
564.554	17.84
564.75	17.42
564.945	16.95
565.141	17.3
565.337	17.3
565.533	18.15
565.728	18.89
565.924	18.46
566.12	19.03
566.315	18.61
566.511	19.01
566.707	19.49
566.902	20.45
567.098	20.65
567.293	20.62
567.489	20.39
567.684	20.21
567.88	20.1
568.076	20.12
568.271	20.14
568.467	20.34
568.662	20.11
568.858	19.44
569.053	18.98
569.248	19.29
569.444	19.49
569.639	19.73
569.835	19.56
570.03	19.23
570.225	19.37
570.421	19.03
570.616	19.02
570.812	18.97
571.007	19.25
571.202	19.55
571.397	19.9
571.593	19.94
571.788	20.04
571.983	20.14
572.178	20.75
572.374	20.63
572.569	20.91
572.764	21.44
572.959	21.49
573.154	21.75
573.35	21.74
573.545	21.81
573.74	22.07
573.935	21.83
574.13	22.01
574.325	22.06
574.52	22.85
574.715	23.12
574.91	22.98
575.105	23.54
575.3	23.39
575.495	23.33
575.69	22.88
575.885	23.07
576.08	23.09
576.275	23.01
576.47	22.77
576.665	22.55
576.86	23.14
577.055	23.13
577.25	22.62
577.444	22.56
577.639	23
577.834	24.04
578.029	24.04
578.224	24.61
578.418	24.62
578.613	24.33
578.808	24.4
579.003	23.69
579.197	23.87
579.392	24.83
579.587	25.07
579.781	25.28
579.976	25.35
580.171	24.25
580.365	24.05
580.56	24.05
580.755	25.02
580.949	25.36
581.144	25.65
581.338	25.37
581.533	25.1
581.727	25.66
581.922	25.28
582.116	24.91
582.311	25.83
582.505	25.91
582.7	26.43
582.894	26.45
583.089	26.31
583.283	25.87
583.478	25.65
583.672	25.61
583.866	25.42
584.061	25.63
584.255	25.48
584.449	25.51
584.644	25.31
584.838	24.93
585.032	24
585.226	24.11
585.421	24.32
585.615	24.9
585.809	25.23
586.003	24.86
586.198	24.57
586.392	23.98
586.586	23.65
586.78	23.72
586.974	23.85
587.168	24.43
587.363	23.54
587.557	23.47
587.751	23.61
587.945	22.78
588.139	23.09
588.333	22.79
588.527	23.23
588.721	22.47
588.915	22.31
589.109	22.01
589.303	21.76
589.497	22.38
589.691	22.44
589.885	21.87
590.079	22.69
590.273	22.67
590.466	22.98
590.66	22.56
590.854	23.33
591.048	23.53
591.242	23.69
591.436	23.44
591.629	23.57
591.823	23.38
592.017	23.95
592.211	23.61
592.404	23.28
592.598	22.64
592.792	22.78
592.986	22.74
593.179	22.19
593.373	22.42
593.567	22.44
593.76	21.98
593.954	22.12
594.147	21.48
594.341	21.58
594.535	22.14
594.728	22.52
594.922	22.53
595.115	22.55
595.309	22.63
595.502	21.92
595.696	22.23
595.889	22.73
596.083	23.2
596.276	23.41
596.47	23.23
596.663	22.99
596.856	23.06
597.05	23.59
597.243	24.31
597.437	25.71
597.63	26.28
597.823	26.36
598.017	25.73
598.21	25.75
598.403	26.54
598.596	27.41
598.79	28.25
598.983	28.65
599.176	28.11
599.369	27.58
599.563	26.84
599.756	27.57
599.949	26.78
600.142	27.47
600.335	26.96
600.528	26.86
600.722	26.2
600.915	25.23
601.108	25.4
601.301	25.76
601.494	26.11
601.687	25.3
601.88	24.74
602.073	24.93
602.266	24.78
602.459	24.49
602.652	24.21
602.845	24.21
603.038	24.43
603.231	23.94
603.424	23.87
603.617	23.55
603.809	24.09
604.002	23.76
604.195	24.2
604.388	24.28
604.581	25.1
604.774	24.95
604.966	24.73
605.159	25.1
605.352	25.18
605.545	25.12
605.737	25.55
605.93	25.37
606.123	26.57
606.316	26.51
606.508	26.81
606.701	26.17
606.894	26.04
607.086	26.28
607.279	25.88
607.471	26.19
607.664	26.25
607.857	26.26
608.049	26.81
608.242	26.11
608.434	26.25
608.627	25.78
608.819	25.82
609.012	26.83
609.204	27.22
609.397	27.18
609.589	27.34
609.782	27.14
609.974	27.48
610.166	27.57
610.359	28.05
610.551	28.95
610.743	29.74
610.936	29.83
611.128	28.98
611.32	28.85
611.513	28.27
611.705	28.44
611.897	28.36
612.09	27.95
612.282	27.14
612.474	27.61
612.666	26.88
612.858	27.37
613.051	27.64
613.243	28.38
613.435	28.13
613.627	28.92
613.819	28.63
614.011	30.13
614.203	30.06
614.395	30.81
614.588	30.49
614.78	30.59
614.972	30.38
615.164	30.27
615.356	30.01
615.548	30.71
615.74	31.59
615.932	31.59
616.124	30.88
616.315	30.85
616.507	31.3
616.699	32
616.891	32.04
617.083	32.01
617.275	32.83
617.467	31.51
617.659	30.94
617.85	30.79
618.042	31.4
618.234	30.83
618.426	31.22
618.618	31.59
618.809	30.46
619.001	30.38
619.193	30.65
619.384	30.41
619.576	32.27
619.768	31.95
619.959	31.72
620.151	31.78
620.343	32.26
620.534	31.79
620.726	31.61
620.917	32.11
621.109	31.95
621.301	31.44
621.492	31.36
621.684	32.37
621.875	33.11
622.067	32.91
622.258	31.61
622.45	32.08
622.641	32.15
622.832	31.65
623.024	31.6
623.215	31.29
623.407	30.9
623.598	30.79
623.789	29.32
623.981	28.67
624.172	27.52
624.363	28.61
624.555	28.09
624.746	27.71
624.937	27.74
625.129	27.6
625.32	27.82
625.511	27.53
625.702	28.03
625.893	28.01
626.085	28.51
626.276	29.15
626.467	28.81
626.658	28.19
626.849	28.33
627.04	28.59
627.231	28.92
627.422	29.53
627.614	29.95
627.805	29.23
627.996	28.95
628.187	28.96
628.378	29.58
628.569	29.27
628.76	30.64
628.951	30.67
629.142	29.6
629.332	29.69
629.523	29.54
629.714	29.62
629.905	30.26
630.096	30.1
630.287	29.66
630.478	30
630.669	31.06
630.859	30.96
631.05	32.23
631.241	32.82
631.432	32.73
631.623	32.73
631.813	32.68
632.004	32.39
632.195	32.84
632.385	33.1
632.576	32.26
632.767	31.51
632.957	30.81
633.148	29.45
633.339	29.91
633.529	29.18
633.72	29.6
633.91	30.47
634.101	30.97
634.292	30.76
634.482	31.4
634.673	31.66
634.863	32.36
635.054	33.59
635.244	34.72
635.435	34.97
635.625	35.16
635.815	34.57
636.006	34.03
636.196	33.39
636.387	33.66
636.577	34.34
636.767	35.46
636.958	34.97
637.148	34.4
637.338	33.55
637.529	33.68
637.719	34.39
637.909	34.64
638.099	34.75
638.29	34.9
638.48	34.96
638.67	34.23
638.86	34.75
639.05	34.98
639.241	35.66
639.431	37.23
639.621	37.14
639.811	37.49
640.001	38.85
640.191	39.35
640.381	40.49
640.571	40.71
640.761	40.35
640.951	39.48
641.141	41.11
641.331	40.31
641.521	39.7
641.711	39.21
641.901	38.68
642.091	38.58
642.281	38.49
642.471	36.91
642.661	36.53
642.851	36.89
643.041	35.5
643.231	35.31
643.42	34.55
643.61	35.06
643.8	33.87
643.99	34.24
644.18	32.94
644.369	31.79
644.559	33.2
644.749	32.42
644.939	31.85
645.128	33.22
645.318	31.56
645.508	32.66
645.697	32.07
645.887	32.55
646.076	33.27
646.266	33.55
646.456	34.37
646.645	33.89
646.835	35.09
647.024	35.22
647.214	33.56
647.403	33.69
647.593	33.62
647.782	32.92
647.972	33.9
648.161	33.79
648.351	33.53
648.54	33.58
648.73	32.95
648.919	32.13
649.108	32.3
649.298	33.43
649.487	32.63
649.677	32.7
649.866	33.28
650.055	33.03
650.244	31.8
650.434	31.9
650.623	31.61
650.812	30.9
651.002	31.47
651.191	30.67
651.38	31.39
651.569	32.63
651.758	33.84
651.947	34.47
652.137	34.05
652.326	34.95
652.515	34.97
652.704	36.37
652.893	37.47
653.082	38.21
653.271	39.7
653.46	38.84
653.649	39.59
653.838	38.94
654.027	37.88
654.216	38.29
654.405	37.97
654.594	38.98
654.783	37.67
654.972	37.31
655.161	37.58
655.35	36.48
655.539	37.04
655.728	36.6
655.916	34.68
656.105	34.56
656.294	34.66
656.483	33.33
656.672	32.5
656.86	32.66
657.049	34.03
657.238	34.02
657.427	34.34
657.615	33.19
657.804	32.45
657.993	33.73
658.181	33.69
658.37	34.16
658.559	35.29
658.747	35.91
658.936	35.22
659.125	34.17
659.313	33.55
659.502	33.73
659.69	34.07
659.879	34.08
660.067	33.43
660.256	33.93
660.444	33.82
660.633	33.68
660.821	32.67
661.01	33.98
661.198	35
661.387	35.46
661.575	35.32
661.763	35.55
661.952	35.69
662.14	36.7
662.328	38.71
662.517	39.12
662.705	39.33
662.893	40.13
663.082	40.01
663.27	40.32
663.458	40.68
663.646	40.68
663.834	41.03
664.023	41.77
664.211	41.63
664.399	39.08
664.587	38.64
664.775	37.77
664.963	38.13
665.152	36.72
665.34	35.4
665.528	35.65
665.716	36
665.904	36.92
666.092	37.07
666.28	36.79
666.468	36.88
666.656	36.48
666.844	37.74
667.032	37.76
667.22	38.9
667.408	40
667.596	38.41
667.784	37.46
667.971	36.52
668.159	35.53
668.347	34.67
668.535	35
668.723	35.63
668.911	35.14
669.098	34.02
669.286	33.08
669.474	32.49
669.662	33.45
669.849	34.98
670.037	34.69
670.225	36.01
670.413	36.78
670.6	38.01
670.788	37.36
670.976	36.91
671.163	39.3
671.351	40.03
671.538	40.39
671.726	40.58
671.913	38.94
672.101	39.81
672.289	38.81
672.476	37.83
672.664	37.82
672.851	37.88
673.039	38.41
673.226	37.1
673.413	36.46
673.601	36.39
673.788	37.69
673.976	38.4
674.163	39.44
674.35	40.56
674.538	41.59
674.725	40.68
674.912	42.04
675.1	41.3
675.287	41.26
675.474	42.81
675.662	43.25
675.849	41.59
676.036	42.27
676.223	40.6
676.411	39.69
676.598	39.74
676.785	40.32
676.972	37.97
677.159	37.55
677.346	37.14
677.533	36.85
677.721	36.68
677.908	36.66
678.095	36.29
678.282	35.02
678.469	35.85
678.656	35.62
678.843	34.93
679.03	35.06
679.217	36.93
679.404	36.72
679.591	35.49
679.778	36.15
679.964	35.53
680.151	34.84
680.338	36.6
680.525	36.36
680.712	37.23
680.899	37.48
681.086	38.8
681.272	39.03
681.459	37.3
681.646	38.73
681.833	37.66
682.02	37.93
682.206	39.47
682.393	39.14
682.58	39.05
682.766	38.37
682.953	38.46
683.14	38.1
683.326	37.19
683.513	38.73
683.7	37.98
683.886	37.78
684.073	38.02
684.259	36.55
684.446	36
684.632	35.86
684.819	36.4
685.005	35.17
685.192	35.29
685.378	34.04
685.565	34.78
685.751	34.98
685.938	36.25
686.124	34.69
686.31	35.68
686.497	35.25
686.683	35.18
686.87	34.34
687.056	33.95
687.242	32.93
687.429	33.12
687.615	33.79
687.801	33.22
687.987	31.26
688.174	33.48
688.36	34.09
688.546	35.45
688.732	36.19
688.918	35.63
689.105	36.29
689.291	34.85
689.477	33.87
689.663	33.31
689.849	34.07
690.035	34.36
690.221	33.75
690.407	33.37
690.593	33.52
690.779	31.02
690.965	34.08
691.151	34.46
691.337	37.41
691.523	37.12
691.709	37.37
691.895	38.99
692.081	38.02
692.267	37.58
692.453	38.12
692.639	37.97
692.825	37.42
693.011	36.3
693.196	36.86
693.382	36.47
693.568	37.29
693.754	36.32
693.94	34.29
694.125	34.41
694.311	35.09
694.497	33.96
694.682	33.45
694.868	35.28
695.054	36.38
695.239	35.43
695.425	35.25
695.611	35.52
695.796	34.77
695.982	36.01
696.168	36.64
696.353	35.47
696.539	35.21
696.724	34.97
696.91	34.66
697.095	32.87
697.281	32.17
697.466	32.33
697.652	32.41
697.837	32.75
698.023	31.62
698.208	31.71
698.393	32.51
698.579	32.07
698.764	34.12
698.949	33.08
699.135	33.34
699.32	35.33
699.505	34.27
699.691	34.59
699.876	35.2
700.061	35.6
700.246	35.76
700.432	36.93
700.617	38.56
700.802	37.73
700.987	40.11
701.172	37.53
701.358	35.81
701.543	37.85
701.728	37.89
701.913	40.65
702.098	41.97
702.283	43.85
702.468	43.09
702.653	43.9
702.838	43.46
703.023	43.05
703.208	46.38
703.393	47.24
703.578	44.76
703.763	46.01
703.948	42.55
704.133	42.96
704.318	43.03
704.503	42.51
704.688	41.85
704.873	41.96
705.057	42.52
705.242	43.21
705.427	43.92
705.612	45.03
705.797	44.51
705.981	44.99
706.166	45.54
706.351	46.37
706.536	47.65
706.72	47.14
706.905	45.95
707.09	45.9
707.274	46.21
707.459	46.71
707.644	48.82
707.828	48.93
708.013	50.19
708.197	50.12
708.382	48.8
708.567	48.56
708.751	47.79
708.936	48.35
709.12	47.74
709.305	47.93
709.489	45.99
709.673	45
709.858	46.04
710.042	45.83
710.227	44.78
710.411	42.89
710.596	43.58
710.78	43.97
710.964	44.29
711.149	45.24
711.333	44.24
711.517	46.47
711.702	45.47
711.886	45.71
712.07	45.45
712.254	45.88
712.438	49.99
712.623	47.67
712.807	48.67
712.991	48.35
713.175	48
713.359	47.79
713.544	46.99
713.728	47.09
713.912	44.36
714.096	44.14
714.28	42.36
714.464	39.68
714.648	40.91
714.832	40.87
715.016	39.65
715.2	39.71
715.384	38.35
715.568	37.21
715.752	38.17
715.936	38.43
716.12	37.47
716.304	36.66
716.488	37.23
716.671	35.56
716.855	32.18
717.039	32.31
717.223	30.76
717.407	32.48
717.59	34.92
717.774	32.48
717.958	32.65
718.142	33.14
718.325	33.33
718.509	30.6
718.693	29.61
718.877	32.12
719.06	35.46
719.244	34.92
719.428	36.12
719.611	34.7
719.795	38.38
719.978	38.77
720.162	39.94
720.345	40.71
720.529	40.33
720.713	42.82
720.896	39.76
721.08	38.76
721.263	39.09
721.446	37.02
721.63	36.26
721.813	33.31
721.997	29.79
722.18	30.02
722.364	33.12
722.547	36.22
722.73	36.27
722.914	38.92
723.097	40
723.28	38.35
723.464	39.52
723.647	39.54
723.83	39.97
724.013	45.36
724.197	45.15
724.38	40.16
724.563	36.38
724.746	33.43
724.929	34.52
725.112	32.01
725.296	35.03
725.479	36.75
725.662	37
725.845	36.56
726.028	33.15
726.211	29.56
726.394	31.81
726.577	33.61
726.76	37.51
726.943	35.92
727.126	37.54
727.309	37.86
727.492	34.62
727.675	34.3
727.858	34.16
728.041	35.34
728.224	38.27
728.407	38.73
728.589	39.1
728.772	37.34
728.955	36.51
729.138	35.3
729.321	34.35
729.503	36.84
729.686	36.67
729.869	36.75
730.052	38.3
730.234	38.75
730.417	38.17
730.6	38.75
730.782	39.1
730.965	41.08
731.148	40.93
731.33	43.08
731.513	40.76
731.695	41.4
731.878	41.47
732.061	44.21
732.243	45.75
732.426	49.33
732.608	49.67
732.791	49.38
732.973	49.84
733.156	50.91
733.338	47.66
733.52	50.61
733.703	51.41
733.885	54.68
734.068	52.22
734.25	53.56
734.432	53.44
734.615	54.71
734.797	58.44
734.979	58.29
735.162	59.69
735.344	61.83
735.526	59.45
735.708	61.04
735.891	60.89
736.073	61.42
736.255	59.04
736.437	60.92
736.619	62.07
736.802	61.7
736.984	62.05
737.166	60.9
737.348	61.79
737.53	66.19
737.712	65.12
737.894	67.93
738.076	65.34
738.258	66.41
738.44	63.6
738.622	62.96
738.804	59.76
738.986	59.2
739.168	60.78
739.35	60.82
739.532	60.58
739.714	58.77
739.896	53.71
740.078	56.22
740.259	53.57
740.441	53.33
740.623	51.96
740.805	55.28
740.987	56.13
741.168	55.06
741.35	56.55
741.532	53.81
741.714	56.27
741.895	58.76
742.077	56.73
742.259	62.22
742.44	64.78
742.622	65.34
742.804	67.15
742.985	66.8
743.167	69.17
743.348	67.15
743.53	69.76
743.711	70.12
743.893	70.82
744.075	70.93
744.256	66.98
744.438	64.43
744.619	65.53
744.8	62.91
744.982	65.35
745.163	65.65
745.345	64.98
745.526	64.97
745.707	68.19
745.889	65.36
746.07	66.56
746.252	70.62
746.433	68.94
746.614	68.71
746.795	68.84
746.977	69.19
747.158	68.19
747.339	68.04
747.52	70.92
747.702	68.12
747.883	69.8
748.064	70.84
748.245	71.76
748.426	76.4
748.607	75.97
748.788	79.27
748.97	77.75
749.151	79.01
749.332	82.04
749.513	83.54
749.694	87.3
749.875	84.55
750.056	85.39
750.237	79.91
750.418	76.8
750.599	76.45
750.78	72.21
750.96	71.93
751.141	68.37
751.322	68.36
751.503	66.14
751.684	59.09
751.865	60.19
752.046	61.51
752.226	59.94
752.407	61.21
752.588	58.11
752.769	58.93
752.949	59.47
753.13	59.96
753.311	58.12
753.492	58.05
753.672	60.17
753.853	60.29
754.034	58.19
754.214	61.94
754.395	65.5
754.575	69.69
754.756	70.12
754.937	73.54
755.117	74.38
755.298	74.32
755.478	73.74
755.659	75.59
755.839	75.38
756.02	78.29
756.2	76.8
756.381	69.2
756.561	66.58
756.741	66.42
756.922	61.26
757.102	59.67
757.283	58.75
757.463	55.5
757.643	50.29
757.823	49.12
758.004	45.22
758.184	41.65
758.364	43.16
758.545	42.54
758.725	39.29
758.905	37.52
759.085	40.41
759.265	38.49
759.446	36.14
759.626	40.97
759.806	37.85
759.986	34.77
760.166	33.14
760.346	30.58
760.526	29.99
760.706	28.22
760.886	27.93
761.066	23.94
761.246	23.47
761.426	24.35
761.606	24.84
761.786	26.35
761.966	27.83
762.146	27.67
762.326	30.29
762.506	28.19
762.686	27.37
762.866	27.06
763.046	28.09
763.225	30.17
763.405	31.88
763.585	30.67
763.765	31.78
763.945	32.19
764.124	33.57
764.304	33.14
764.484	38.49
764.664	44
764.843	47.23
765.023	52.69
765.203	55.68
765.382	59.38
765.562	60.33
765.741	65.74
765.921	70.19
766.101	75.13
766.28	78.12
766.46	76.35
766.639	75.63
766.819	84.16
766.998	85.29
767.178	87.39
767.357	83.61
767.537	83.66
767.716	82.85
767.896	79.75
768.075	82.74
768.254	82.94
768.434	83.49
768.613	84.76
768.792	86.34
768.972	85.26
769.151	88.04
769.33	95.54
769.51	96.61
769.689	100.45
769.868	101.33
770.047	93.64
770.226	101.17
770.406	108.04
770.585	110.46
770.764	106.06
770.943	101.86
771.122	97.57
771.301	98.87
771.48	101.46
771.66	92.14
771.839	96.22
772.018	102.33
772.197	91.2
772.376	89.18
772.555	87.18
772.734	84.55
772.913	92.28
773.092	87.37
773.271	83.25
773.449	85.76
773.628	91.69
773.807	84.41
773.986	86.5
774.165	91.86
774.344	88.79
774.523	92.51
774.701	87.31
774.88	76.06
775.059	83.72
775.238	87.48
775.417	82.7
775.595	82.72
775.774	85.88
775.953	84.5
776.131	84.67
776.31	84.56
776.489	87.03
776.667	88.89
776.846	88.37
777.025	83.45
777.203	76.21
777.382	73.71
777.56	76.22
777.739	79.89
777.917	78.78
778.096	78.91
778.274	79.38
778.453	76.01
778.631	78.1
778.81	83.17
778.988	88.19
779.166	94.23
779.345	90.01
779.523	86.07
779.702	77.81
779.88	82.59
780.058	85.12
780.237	85.2
780.415	82.61
780.593	78.62
780.771	77.28
780.95	72.24
781.128	74.22
781.306	86.48
781.484	94.89
781.662	100.35
781.841	95.33
782.019	86.5
782.197	84.47
782.375	90.58
782.553	91.95
782.731	93.69
782.909	104.68
783.087	93.78
783.265	86.24
783.443	78.65
783.621	72.42
783.799	74.67
783.977	75.87
784.155	77.67
784.333	71.41
784.511	69.45
784.689	74.44
784.867	74.52
785.045	77.63
785.223	76.09
785.4	74.02
785.578	75.65
785.756	78.59
785.934	79.71
786.112	75.3
786.289	74.66
786.467	75.5
786.645	71.08
786.823	70.99
787	69.15
787.178	67.93
787.356	65.88
787.533	63.36
787.711	57.97
787.889	54.19
788.066	59.01
788.244	57.48
788.421	60.89
788.599	60.46
788.776	61.06
788.954	64.07
789.131	62.82
789.309	69.32
789.486	79.87
789.664	78.5
789.841	84.43
790.019	81.02
790.196	80.33
790.373	86.12
790.551	94.69
790.728	85.49
790.906	89.15
791.083	103.37
791.26	90.78
791.437	71.39
791.615	71.65
791.792	73.78
791.969	77.73
792.146	83.17
792.324	75.04
792.501	74.98
792.678	80.29
792.855	71.91
793.032	62.72
793.209	68.75
793.387	64.8
793.564	72.09
793.741	73.63
793.918	79.39
794.095	81.83
794.272	75.43
794.449	69.7
794.626	72.31
794.803	73.44
794.98	76
795.157	76.96
795.334	86.8
795.511	83.56
795.688	89.11
795.864	88.63
796.041	93.08
796.218	92.42
796.395	95.73
796.572	89.57
796.749	84.55
796.925	82.07
797.102	81.18
797.279	77.63
797.456	76.6
797.632	66.95
797.809	65.03
797.986	64.59
798.162	70.54
798.339	68.1
798.516	70.2
798.692	74.33
798.869	76.07
799.046	71.09
799.222	69.52
799.399	72.61
799.575	80.9
799.752	74.47
799.928	76.41
800.105	68.25
800.281	68.5
800.458	65.76
800.634	66.61
800.811	61.85
800.987	61.68
801.163	61.9
801.34	58.01
801.516	48.97
801.692	54.88
801.869	53.74
802.045	58.69
802.221	62.27
802.398	58.7
802.574	58.21
802.75	70.35
802.926	74.32
803.103	75.64
803.279	73.32
803.455	78.58
803.631	76.24
803.807	81.51
803.983	89.43
804.16	88.25
804.336	88.06
804.512	100.67
804.688	82.13
804.864	81.56
805.04	84.74
805.216	90.53
805.392	83.83
805.568	92.88
805.744	80.77
805.92	74.83
806.096	71.13
806.272	85.65
806.448	77.12
806.623	82.8
806.799	79.12
806.975	82.1
807.151	69.81
807.327	80.93
807.503	77.85
807.678	79.1
807.854	70.28
808.03	76.18
808.206	67.25
808.381	71.14
808.557	80.17
808.733	80.3
808.908	82.37
809.084	96.65
809.26	85.01
809.435	79.88
809.611	77.11
809.787	89
809.962	70.16
810.138	66.43
810.313	47.69
810.489	30.75
810.664	46.7
810.84	43.19
811.015	58.96
811.191	59.87
811.366	53.92
811.542	70.06
811.717	73.8
811.892	100.14
812.068	85.98
812.243	111.9
812.419	146.02
812.594	114.61
812.769	116.45
812.944	87.11
813.12	72.44
813.295	75.86
813.47	60.56
813.645	54.31
813.821	55.22
813.996	68.39
814.171	65.14
814.346	70.57
814.521	62.94
814.697	55.1
814.872	47.2
815.047	50.93
815.222	42.21
815.397	45.22
815.572	40.35
815.747	46.37
815.922	41.73
816.097	45.79
816.272	28.6
816.447	31.26
816.622	31.5
816.797	41.82
816.972	41.23
817.147	47.23
817.322	54.4
817.496	63.77
817.671	60.95
817.846	60.11
818.021	62.06
818.196	60.53
818.371	61.76
818.545	56.5
818.72	51.93
818.895	49.64
819.069	42.3
819.244	32.2
819.419	26.08
819.594	22.45
819.768	22.97
819.943	18.5
820.117	20.26
820.292	18.16
820.467	17.1
820.641	16.3
820.816	17.37
820.99	16.9
821.165	17.73
821.339	17.5
821.514	18.91
821.688	17.36
821.863	18.1
822.037	16.82
822.212	16.99
822.386	20.97
822.56	23.5
822.735	23.64
822.909	24.97
823.084	28.17
823.258	30.08
823.432	30.42
823.606	31.1
823.781	35.03
823.955	39.99
824.129	42.85
824.303	40.6
824.478	39.24
824.652	39.43
824.826	38.49
825	33.21
825.174	29.99
825.348	29.49
825.523	30.41
825.697	26.6
825.871	23.72
826.045	23.58
826.219	22.77
826.393	23.33
826.567	23.85
826.741	22.11
826.915	22.57
827.089	24.99
827.263	26.15
827.437	25.9
827.611	28.03
827.784	30.37
827.958	28.73
828.132	31.17
828.306	26.72
828.48	25.67
828.654	41.43
828.827	49.25
829.001	50.27
829.175	56.21
829.349	57.08
829.522	61
829.696	54.16
829.87	57.49
830.044	55.46
830.217	64.39
830.391	70.37
830.565	57.19
830.738	48.98
830.912	43.18
831.085	27.99
831.259	18.77
831.432	14.56
831.606	23.8
831.779	19.31
831.953	28.97
832.126	24.75
832.3	23.56
832.473	22.81
832.647	22.34
832.82	22.08
832.994	22.44
833.167	25.19
833.34	22.21
833.514	17.92
833.687	25.54
833.86	28.42
834.034	28.12
834.207	31.09
834.38	36.38
834.553	42.42
834.727	49.21
834.9	55.68
835.073	72.01
835.246	71.1
835.419	81.57
835.593	76.9
835.766	75.73
835.939	99.84
836.112	98.92
836.285	105.28
836.458	91.79
836.631	82.25
836.804	94.79
836.977	76.33
837.15	91.76
837.323	102.78
837.496	135.29
837.669	164.37
837.842	131.49
838.015	117.06
838.188	104.87
838.361	107.07
838.533	97.56
838.706	75.73
838.879	78.74
839.052	96.58
839.225	83.27
839.398	71.59
839.57	58.48
839.743	54.38
839.916	48.42
840.088	37.09
840.261	34.3
840.434	45.39
840.607	53.95
840.779	50.75
840.952	39.88
841.124	45.64
841.297	58.61
841.47	64.98
841.642	76.32
841.815	93.51
841.987	125.16
842.16	183.74
842.332	133.58
842.505	88.72
842.677	75.18
842.85	41.77
843.022	56.09
843.194	30.35
843.367	27.74
843.539	16.7
843.712	20.33
843.884	8.55
844.056	4.65
844.229	7.47
844.401	10.94
844.573	18.36
844.745	50.62
844.918	20.99
845.09	69.09
845.262	117.72
845.434	162.98
845.606	258.93
845.779	-602.27
845.951	4575
846.123	-561.76
846.295	812.24
846.467	-657.89
846.639	-1343.48
846.811	405.68
846.983	175.38
847.155	136.25
847.327	100.94
847.499	98.86
847.671	116.98
847.843	234.55
848.015	186.96
848.187	148.57
848.359	133.33
848.531	176.47
848.703	234.5
848.875	331.21
849.047	1267.5
849.218	3325
849.39	-609.88
849.562	9440
849.734	-1071.43
849.905	6100
850.077	-382.43
850.249	-130
850.421	428.57
850.592	232.52
850.764	102.41
850.936	54.57
851.107	33.77
851.279	35.33
851.451	-8.25
851.622	-9.5
851.794	-3.23
851.965	-25.15
852.137	23.6
852.308	666.67
852.48	56.48
852.651	-1.57
852.823	-126.98
852.994	-1103.7
853.166	1862.5
853.337	-433.33
853.509	79.4
853.68	-75
853.851	-61.11
854.023	-110.49
854.194	-141.53
854.365	16.51
854.537	14.72
854.708	-1.15
854.879	-89.64
855.05	-90.04
855.222	-57.49
855.393	-59.62
855.564	31.51
855.735	60.96
855.906	117.97
856.078	110.09
856.249	65.63
856.42	42.74
856.591	110.65
856.762	-663.16
856.933	-1273.08
857.104	-397.33
857.275	12175
857.446	661.54
857.617	-9016.67
857.788	27100
857.959	354.29
858.13	904.08
858.301	275.58
858.472	251.67
858.643	209.06
858.814	161.24
858.985	182.04
859.155	162.5
859.326	218.81
859.497	80.26
859.668	25.93
859.839	34.82
860.009	147.62
860.18	191.03
860.351	95.3
860.522	73.09
860.692	68.5
860.863	37.18
861.034	5.26
861.204	17.66
861.375	-80.62
861.546	-43.46
861.716	-50.34
861.887	-94.05
862.057	-598.53
862.228	-700
862.398	110.6
862.569	260.78
862.739	-88.64
862.91	313.04
863.08	3357.14
863.251	-1666.67
863.421	-681.33
863.592	-5050
863.762	-511.69
863.932	1441.46
864.103	-1206.67
864.273	448.42
864.443	333.33
864.614	174.14
864.784	114.52
864.954	76.88
865.125	58.95
865.295	64.92
865.465	77.5
865.635	73.55
865.805	9.35
865.976	16.78
866.146	25.56
866.316	35.38
866.486	42.02
866.656	54.76
866.826	77.23
866.996	88.98
867.166	109.65
867.336	102.88
867.506	87.05
867.676	110.64
867.846	102.75
868.016	92.66
868.186	160.74
868.356	648.19
868.526	443.43
868.696	-1611.76
868.866	-180.6
869.036	-151.85
869.206	262.16
869.376	-670.37
869.545	1004
869.715	1376.19
869.885	-472.06
870.055	-146.15
870.224	91.81
870.394	82.67
870.564	83.72
870.734	110.71
870.903	136.57
871.073	309.86
871.243	200
871.412	220.18
871.582	398.91
871.751	-800
871.921	-95.57
872.091	-13.05
872.26	-34.96
872.43	-36.53
872.599	-77.45
872.769	-8.64
872.938	30.53
873.108	-12.59
873.277	70.16
873.446	930.77
873.616	-49.46
873.785	98.83
873.955	74.04
874.124	90.91
874.293	151.55
874.463	262.16
874.632	-120.29
874.801	-98.18
874.971	7.38
875.14	-0.51
875.309	23.23
875.478	-34.07
875.647	27.48
875.817	50.75
875.986	55.16
876.155	-8000
876.324	106.82
876.493	66.51
876.662	168.03
876.831	93.46
877	136.79
877.17	143.62
877.339	222.5
877.508	208.11
877.677	0
877.846	-1391.67
878.015	-725
878.184	-316.95
878.352	-8633.33
878.521	619.12
878.69	207.95
878.859	117.74
879.028	111.63
879.197	109.12
879.366	75.09
879.534	55.15
879.703	52.28
879.872	32.4
880.041	32.71
880.21	29.57
880.378	35.69
880.547	26.61
880.716	29.17
880.884	24.54
881.053	24.45
881.222	25.21
881.39	21.8
881.559	25.28
881.727	23.29
881.896	19.86
882.065	17.67
882.233	14.11
882.402	18.84
882.57	6.79
882.739	14.71
882.907	2.08
883.076	-6.32
883.244	-3.65
883.412	-6.31
883.581	5.03
883.749	2.64
883.918	-0.24
884.086	-5.67
884.254	5.04
884.423	39.82
884.591	20.02
884.759	52.45
884.927	77.16
885.096	55.16
885.264	42.26
885.432	67.16
885.6	83.56
885.769	65.91
885.937	61.51
886.105	54.88
886.273	31.95
886.441	31.99
886.609	33.84
886.777	23.68
886.945	50.28
887.113	64.2
887.281	74.32
887.449	65.93
887.617	83.71
887.785	112.28
887.953	113.85
888.121	194.18
888.289	433.33
888.457	742.31
888.625	434.52
888.793	-881.58
888.961	1390.63
889.129	3116.67
889.296	517.19
889.464	576.92
889.632	464.62
889.8	253.7
889.967	160.38
890.135	103.81
