Data from JASIL_3276_Reflection_1.txt Node
Date: Tue Nov 17 19:07:53 EST 2015
User: Geneva
Spectrometer: USB4E03002
Autoset integration time: false
Trigger mode: 4
Integration Time (sec): 1.000000E-1
Scans to average: 10
Electric dark correction enabled: false
Nonlinearity correction enabled: false
Boxcar width: 5
Stray light correction enabled: false
XAxis mode: Wavelengths
Stop averaging: false
Number of Pixels in Spectrum: 3648
>>>>>Begin Spectral Data<<<<<
177.575	173.53
177.794	101.01
178.014	121.05
178.233	937.5
178.452	-383.33
178.672	54.63
178.891	108.12
179.11	210
179.33	181.2
179.549	189.18
179.768	210.87
179.987	327.2
180.207	320.83
180.426	308.7
180.645	-36.54
180.864	-22.63
181.084	25.91
181.303	35.24
181.522	22.38
181.741	12.5
181.96	41.65
182.179	39.42
182.398	14.17
182.618	-97.24
182.837	-215.26
183.056	5700
183.275	203.75
183.494	140.2
183.713	127.27
183.932	103.57
184.151	84.51
184.37	74.97
184.589	72.84
184.808	68.08
185.027	58.8
185.246	47.81
185.465	14.82
185.684	-1210
185.903	114.87
186.122	116.73
186.341	72.97
186.56	3.83
186.779	-24.43
186.998	25.75
187.216	15.67
187.435	19.8
187.654	33.03
187.873	17.25
188.092	-3.82
188.311	39.85
188.53	31.49
188.748	23.79
188.967	26.26
189.186	21.48
189.405	-54.13
189.623	-10.11
189.842	-26.4
190.061	7.93
190.28	12.44
190.498	-68
190.717	3337.5
190.936	352.43
191.154	265.57
191.373	212.66
191.592	2754.55
191.81	-53.96
192.029	638.46
192.248	-2730
192.466	-135.04
192.685	-623.88
192.904	-72.34
193.122	-44.1
193.341	-25.23
193.559	-38.87
193.778	-11.17
193.996	37.23
194.215	54.85
194.433	102.19
194.652	88.89
194.87	203.53
195.089	105.82
195.307	155.68
195.526	396.55
195.744	-128.95
195.963	56.99
196.181	28.49
196.399	-37.5
196.618	-28.72
196.836	-160.23
197.055	-18.7
197.273	-40.48
197.491	-74.02
197.71	71.3
197.928	28.77
198.146	28.13
198.365	54.8
198.583	64.86
198.801	77.78
199.019	59.93
199.238	70.36
199.456	41.01
199.674	42.51
199.892	42.46
200.111	21.21
200.329	19.65
200.547	-14.22
200.765	-12.25
200.983	6.77
201.202	34.32
201.42	57.61
201.638	26.84
201.856	195.92
202.074	-261.54
202.292	517.65
202.51	48.15
202.728	139.09
202.946	146.93
203.165	172.96
203.383	151.28
203.601	140
203.819	29.15
204.037	73.1
204.255	20.45
204.473	36.44
204.691	27.09
204.909	66.88
205.127	54.85
205.345	59.14
205.562	-2.98
205.78	-171.3
205.998	-10.84
206.216	6.39
206.434	0.59
206.652	-7.34
206.87	-4.34
207.088	-19.05
207.306	-44.26
207.523	-28.13
207.741	-33.07
207.959	-26.67
208.177	-3.36
208.395	-6.87
208.612	-3.51
208.83	-9.97
209.048	5.51
209.266	3.64
209.483	-5.18
209.701	-9.31
209.919	-7.56
210.136	-3.24
210.354	10.41
210.572	27.22
210.79	41.07
211.007	47.06
211.225	65.29
211.442	79.38
211.66	75.71
211.878	93.09
212.095	73.8
212.313	77.56
212.53	79.71
212.748	73.39
212.966	69.83
213.183	76.48
213.401	70.47
213.618	76.19
213.836	77.68
214.053	121.05
214.271	78.81
214.488	173.21
214.705	92.14
214.923	138.46
215.14	98.63
215.358	55.46
215.575	53.01
215.793	60.32
216.01	61.45
216.227	69.81
216.445	65.62
216.662	92.16
216.879	96.76
217.097	93.92
217.314	89.25
217.531	116.55
217.749	129.07
217.966	106.05
218.183	69.9
218.4	60.96
218.618	62.75
218.835	16.67
219.052	-3.5
219.269	7.4
219.487	-23.28
219.704	-30.67
219.921	-48.92
220.138	-48.68
220.355	-36.87
220.572	4.61
220.79	-12.2
221.007	7.41
221.224	-15.97
221.441	-31.34
221.658	-30.74
221.875	-14.14
222.092	-47.74
222.309	-19.22
222.526	-4.88
222.743	-55.43
222.96	-9.12
223.177	1.95
223.394	-17.34
223.611	1.01
223.828	-2.59
224.045	-28.39
224.262	-8.37
224.479	0.57
224.696	-2.51
224.913	14.56
225.13	8.69
225.347	8.54
225.564	15.86
225.781	9.81
225.997	11.61
226.214	5.85
226.431	8.38
226.648	8.79
226.865	15.4
227.082	12.75
227.298	2.99
227.515	8.42
227.732	4.73
227.949	4.02
228.165	6.5
228.382	4.62
228.599	1.04
228.816	-1.94
229.032	-2.84
229.249	-3.59
229.466	3.64
229.682	8.37
229.899	3.95
230.116	2.93
230.332	-3.98
230.549	-9.05
230.765	-11.65
230.982	16.98
231.199	16.35
231.415	16.21
231.632	7.58
231.848	-13.11
232.065	-6.59
232.281	4.04
232.498	0
232.714	2.7
232.931	14.49
233.147	17.37
233.364	0.96
233.58	4.05
233.797	5.43
234.013	2.81
234.23	15.66
234.446	8.5
234.662	6.02
234.879	7.55
235.095	9.66
235.312	-4.35
235.528	4.37
235.744	2.57
235.961	-4.07
236.177	-14.99
236.393	-8.39
236.61	-11.84
236.826	-8.31
237.042	-8.93
237.258	0.88
237.475	8.08
237.691	18.59
237.907	7.26
238.123	11.46
238.339	14.2
238.556	16.28
238.772	19.68
238.988	17.59
239.204	11.21
239.42	15.04
239.636	12.96
239.853	11.92
240.069	6.09
240.285	8.33
240.501	9.05
240.717	9.92
240.933	9.37
241.149	8.89
241.365	5.66
241.581	9.45
241.797	3.11
242.013	4.69
242.229	3.84
242.445	6.08
242.661	6.09
242.877	3.38
243.093	4.49
243.309	5.17
243.525	0.59
243.741	2.91
243.957	-1.56
244.173	3.59
244.388	-1.01
244.604	-3.28
244.82	-2.55
245.036	-2.54
245.252	1.46
245.468	2.04
245.683	1.62
245.899	3.88
246.115	4.68
246.331	6.88
246.547	7.22
246.762	7.33
246.978	8.55
247.194	9.89
247.409	10.13
247.625	9.7
247.841	12.68
248.057	15.76
248.272	13.48
248.488	13.15
248.703	12.01
248.919	14.09
249.135	16.73
249.35	17.1
249.566	15.74
249.782	19.36
249.997	18.32
250.213	12.96
250.428	8.86
250.644	13.3
250.859	14.62
251.075	14.63
251.29	11.56
251.506	11.84
251.721	11.12
251.937	12.58
252.152	7.59
252.368	5.8
252.583	10.67
252.798	13.82
253.014	14.43
253.229	13.87
253.445	14.95
253.66	19.22
253.875	16.58
254.091	17.32
254.306	13.37
254.521	19.37
254.737	18.02
254.952	13.26
255.167	12.03
255.383	4.75
255.598	5.89
255.813	7.93
256.028	4.87
256.244	4.8
256.459	3.86
256.674	2.5
256.889	2.24
257.104	2.86
257.32	4.8
257.535	2.46
257.75	6.19
257.965	5.46
258.18	3.84
258.395	4.56
258.61	5.07
258.826	6.01
259.041	7
259.256	7.35
259.471	8.48
259.686	7.39
259.901	9.19
260.116	8.27
260.331	7.19
260.546	7.43
260.761	7.09
260.976	7.28
261.191	5.11
261.406	2.85
261.621	-0.66
261.836	-1.58
262.05	-4.57
262.265	-10.14
262.48	-8.56
262.695	-11.18
262.91	-14.41
263.125	-13.14
263.34	-13.4
263.555	-9.76
263.769	-7.24
263.984	-1.44
264.199	-2.19
264.414	0.31
264.629	2.95
264.843	0.21
265.058	5.07
265.273	6.84
265.488	3.63
265.702	1.84
265.917	1.24
266.132	0.45
266.346	-3.3
266.561	-0.78
266.776	-0.37
266.99	1.57
267.205	2.82
267.42	3.98
267.634	3.6
267.849	5.3
268.063	5.79
268.278	6.96
268.492	7.73
268.707	7.7
268.922	4.93
269.136	5.42
269.351	5.89
269.565	6.02
269.78	4.45
269.994	4.86
270.209	5.34
270.423	7.02
270.637	4.99
270.852	2.2
271.066	2.9
271.281	3.44
271.495	4.29
271.709	2.25
271.924	2.01
272.138	2.23
272.353	2.59
272.567	2.53
272.781	1.41
272.996	3.31
273.21	4.62
273.424	4.67
273.638	5.02
273.853	5.2
274.067	7.91
274.281	7.46
274.495	6.9
274.71	7.19
274.924	8.27
275.138	7.57
275.352	5.88
275.566	9.39
275.781	8.93
275.995	8.5
276.209	7.67
276.423	8.04
276.637	9.74
276.851	7.88
277.065	7.21
277.279	4.35
277.493	4.75
277.707	5.07
277.921	2.37
278.135	0.35
278.349	2.27
278.563	2.66
278.777	-0.3
278.991	-0.52
279.205	2
279.419	1.81
279.633	3.27
279.847	5.97
280.061	7.83
280.275	8.61
280.489	11.83
280.703	11.7
280.917	9.69
281.131	10.04
281.344	8.58
281.558	7.51
281.772	7.74
281.986	7.36
282.2	5.2
282.414	3.27
282.627	3.56
282.841	2.23
283.055	1.3
283.269	4.18
283.482	3.87
283.696	6.24
283.91	5.42
284.123	6.49
284.337	6.67
284.551	7.24
284.764	7.84
284.978	8.15
285.192	8.83
285.405	7.55
285.619	5.79
285.833	7.47
286.046	5.32
286.26	5.83
286.473	3.7
286.687	3.14
286.9	2.49
287.114	1.31
287.327	-0.45
287.541	-2.55
287.754	-1.18
287.968	-0.64
288.181	-2.38
288.395	-0.94
288.608	0.37
288.822	1.69
289.035	3.42
289.248	3.11
289.462	3.44
289.675	3.73
289.889	4.95
290.102	4.54
290.315	5.2
290.529	4.35
290.742	4.18
290.955	3.77
291.169	3.07
291.382	2.66
291.595	3.58
291.808	3.8
292.022	4.34
292.235	4.95
292.448	5.13
292.661	5.34
292.875	8.16
293.088	6.94
293.301	6.07
293.514	5.88
293.727	6.76
293.94	5.65
294.153	5.56
294.367	4.96
294.58	3.91
294.793	4.11
295.006	3.33
295.219	0.51
295.432	3.08
295.645	4.59
295.858	4.66
296.071	4.81
296.284	5.57
296.497	6.56
296.71	6.02
296.923	6.69
297.136	6.51
297.349	7.56
297.562	8.37
297.775	7.21
297.988	5.75
298.201	5.93
298.414	5.05
298.626	5.67
298.839	3.41
299.052	3.47
299.265	3.67
299.478	5.1
299.691	2.94
299.903	3.3
300.116	1.5
300.329	2.33
300.542	4.07
300.755	4.29
300.967	3.96
301.18	6.84
301.393	7.9
301.605	6.35
301.818	4.84
302.031	5.19
302.243	5.84
302.456	7.73
302.669	8.86
302.881	7.9
303.094	6.35
303.307	5.28
303.519	3.24
303.732	4.6
303.944	5.29
304.157	5.3
304.37	5.78
304.582	4.2
304.795	4.64
305.007	3.45
305.22	2.67
305.432	3.38
305.645	4.35
305.857	5.44
306.069	3.61
306.282	4.44
306.494	2.84
306.707	2.09
306.919	3.73
307.132	4.32
307.344	4.81
307.556	5.03
307.769	3.56
307.981	2.92
308.193	3.61
308.406	4.01
308.618	3.45
308.83	4.52
309.043	5.09
309.255	5.12
309.467	3.26
309.679	2.95
309.892	3.38
310.104	4.56
310.316	4.3
310.528	3.33
310.74	3.38
310.953	3.38
311.165	2.98
311.377	2.57
311.589	1.8
311.801	2.46
312.013	2.69
312.225	1.69
312.437	2.56
312.649	2.63
312.862	2.36
313.074	3.04
313.286	1.71
313.498	3.83
313.71	3.96
313.922	4.62
314.134	5.18
314.346	5.93
314.558	5.62
314.77	3.01
314.982	1.79
315.193	1.14
315.405	-1.28
315.617	1.73
315.829	-1.09
316.041	-0.59
316.253	-1.39
316.465	-1.96
316.677	-1.04
316.888	-0.18
317.1	0.93
317.312	3.71
317.524	5.18
317.736	7.12
317.947	5.43
318.159	7.17
318.371	7.23
318.583	8.1
318.794	8.66
319.006	8.22
319.218	8.36
319.43	8.52
319.641	7.89
319.853	7.82
320.064	6.51
320.276	7.65
320.488	8.76
320.699	7.29
320.911	6.93
321.123	6.34
321.334	4.41
321.546	4.39
321.757	5.2
321.969	2.7
322.18	2.81
322.392	2.69
322.603	2.48
322.815	0
323.026	2.55
323.238	2.06
323.449	2.8
323.661	4.12
323.872	3.58
324.083	1.72
324.295	4.77
324.506	3.72
324.718	5.28
324.929	3.62
325.14	3.49
325.352	1.91
325.563	2.22
325.774	1.52
325.986	0.71
326.197	2.71
326.408	3.7
326.62	1.26
326.831	1.88
327.042	2.63
327.253	4.1
327.464	5.98
327.676	6.64
327.887	6.61
328.098	5.97
328.309	7.06
328.52	6.76
328.732	7.84
328.943	8.82
329.154	8.62
329.365	8.65
329.576	9
329.787	8.79
329.998	10.05
330.209	11.27
330.42	11.48
330.631	11.47
330.842	11.35
331.053	11.48
331.264	13.03
331.475	13.4
331.686	10.36
331.897	10.38
332.108	10.17
332.319	9.15
332.53	7.82
332.741	8.54
332.952	7.8
333.163	7.32
333.374	7.39
333.585	7.05
333.795	6.18
334.006	6.56
334.217	4.29
334.428	5.13
334.639	5.27
334.849	5.39
335.06	5.83
335.271	5.84
335.482	6.41
335.692	6.42
335.903	5.25
336.114	8.17
336.325	9.07
336.535	10.26
336.746	9.19
336.957	9.17
337.167	9.57
337.378	8.45
337.589	8.08
337.799	6.9
338.01	7.4
338.22	8.56
338.431	6.1
338.642	5.08
338.852	5.54
339.063	4.5
339.273	4.17
339.484	4.9
339.694	6.5
339.905	6.5
340.115	6.73
340.326	6.79
340.536	6.57
340.746	6.83
340.957	8
341.167	8.33
341.378	9.12
341.588	8.01
341.799	8.8
342.009	7.43
342.219	8.42
342.43	8.47
342.64	7.75
342.85	8.16
343.061	8.86
343.271	8.52
343.481	8.72
343.691	9.16
343.902	9.87
344.112	7.48
344.322	7.21
344.532	7.56
344.743	7.67
344.953	7.41
345.163	7.11
345.373	6.46
345.583	7.36
345.793	7.77
346.004	7.55
346.214	7.3
346.424	9.22
346.634	9.57
346.844	7.58
347.054	8.13
347.264	8.95
347.474	8.11
347.684	8.07
347.894	7.65
348.104	6.15
348.314	6.39
348.524	6.16
348.734	4.82
348.944	4.09
349.154	4.59
349.364	4.18
349.574	2.71
349.784	2.79
349.994	3.12
350.204	2.2
350.413	2.84
350.623	2.28
350.833	3.09
351.043	3.65
351.253	4.23
351.463	5.3
351.672	5.49
351.882	6.91
352.092	8.12
352.302	7.85
352.511	7.86
352.721	8.19
352.931	7.77
353.141	7.31
353.35	7.65
353.56	8.73
353.77	8.19
353.979	8.69
354.189	8.4
354.399	6.79
354.608	6.89
354.818	8.32
355.027	7.29
355.237	7.59
355.447	8.21
355.656	7.99
355.866	7.79
356.075	7.77
356.285	7.31
356.494	7.35
356.704	7.88
356.913	7.25
357.123	6.48
357.332	7.51
357.542	7.19
357.751	6.73
357.96	5.82
358.17	5.69
358.379	5.94
358.589	5.3
358.798	4.31
359.007	4.1
359.217	4.57
359.426	5.01
359.635	4.16
359.845	4.96
360.054	5.32
360.263	6.22
360.472	5.7
360.682	5.3
360.891	5.22
361.1	4.84
361.309	4.7
361.519	4.63
361.728	3.96
361.937	3.82
362.146	3.29
362.355	3.39
362.564	2.19
362.774	1.92
362.983	1.76
363.192	2.71
363.401	3.58
363.61	3.62
363.819	4.11
364.028	4.07
364.237	4.48
364.446	4.4
364.655	3.51
364.864	4.03
365.073	5.06
365.282	5.53
365.491	5.23
365.7	5.33
365.909	5.28
366.118	4.44
366.327	4.01
366.536	4.32
366.745	3.87
366.954	4.18
367.162	4.24
367.371	3.73
367.58	3.69
367.789	3.52
367.998	3.32
368.207	3.24
368.415	3.34
368.624	3.47
368.833	3.13
369.042	4.08
369.25	3.71
369.459	3.83
369.668	3.79
369.877	2.23
370.085	2.08
370.294	1.83
370.503	1.59
370.711	1.71
370.92	2.03
371.129	1.62
371.337	1.61
371.546	1.85
371.754	2.08
371.963	1.78
372.171	3.3
372.38	3.74
372.589	3.64
372.797	4.24
373.006	4.12
373.214	5.3
373.423	5.65
373.631	4.68
373.84	5.01
374.048	5.81
374.256	5.84
374.465	6.05
374.673	6.04
374.882	7.01
375.09	7.77
375.298	8.53
375.507	7.19
375.715	7.71
375.923	8.63
376.132	8.29
376.34	6.91
376.548	6.7
376.757	7.14
376.965	7.89
377.173	6.99
377.381	6.57
377.59	6.28
377.798	7.42
378.006	6.88
378.214	5.57
378.423	4.97
378.631	5.81
378.839	6.37
379.047	4.95
379.255	3.09
379.463	3.13
379.671	3.02
379.879	3.35
380.088	2.11
380.296	1.71
380.504	3.05
380.712	4.04
380.92	3.83
381.128	3.22
381.336	3.54
381.544	5.11
381.752	5.19
381.96	5.32
382.168	3.66
382.376	4.64
382.584	4.29
382.791	4.38
382.999	3.52
383.207	3.64
383.415	4.47
383.623	5.22
383.831	4.39
384.039	4.19
384.247	3.61
384.454	4.19
384.662	4.56
384.87	5.86
385.078	5.11
385.285	5.26
385.493	5.15
385.701	4.48
385.909	4.2
386.116	4.53
386.324	5.51
386.532	5.93
386.739	6.27
386.947	5.89
387.155	5.4
387.362	5.77
387.57	5.84
387.778	5.96
387.985	5.73
388.193	6.26
388.4	6.21
388.608	6.03
388.816	5.81
389.023	5.04
389.231	4.52
389.438	4.82
389.646	4.35
389.853	4.85
390.061	4.07
390.268	3.69
390.475	2.67
390.683	3.03
390.89	2.32
391.098	2.69
391.305	3.2
391.512	3.5
391.72	3.78
391.927	3.83
392.135	3.79
392.342	4.91
392.549	5.09
392.756	5.09
392.964	4.72
393.171	4.68
393.378	4.83
393.586	4.91
393.793	4.84
394	4.23
394.207	4.69
394.414	5.27
394.622	5.12
394.829	5.91
395.036	7.02
395.243	7.29
395.45	7.62
395.657	7.79
395.864	8.08
396.072	7.32
396.279	6.36
396.486	6.02
396.693	4.71
396.9	4.1
397.107	3.29
397.314	2.33
397.521	1.51
397.728	0.87
397.935	0.28
398.142	0.37
398.349	1
398.556	1.32
398.763	2.25
398.97	2.26
399.177	2.5
399.383	3.36
399.59	3.46
399.797	3.94
400.004	4.87
400.211	4.29
400.418	4.48
400.625	4.41
400.831	4.98
401.038	4.53
401.245	4.73
401.452	4.89
401.658	4.73
401.865	4.83
402.072	4.65
402.279	4.52
402.485	5.29
402.692	4.06
402.899	4.71
403.105	4.37
403.312	4.22
403.519	4.51
403.725	3.9
403.932	3.78
404.138	3.69
404.345	3.18
404.552	2.87
404.758	2.74
404.965	3.56
405.171	3.17
405.378	3.34
405.584	2.74
405.791	2.77
405.997	2.4
406.204	2.11
406.41	1.97
406.617	2.28
406.823	2.47
407.029	2.21
407.236	1.9
407.442	1.65
407.649	1.92
407.855	2.94
408.061	3.19
408.268	3.53
408.474	4.07
408.68	3.35
408.887	3.12
409.093	3.27
409.299	3.57
409.505	3.93
409.712	4.4
409.918	4.54
410.124	4.16
410.33	3.84
410.537	4.44
410.743	3.95
410.949	5.09
411.155	5.5
411.361	5.28
411.567	4.53
411.773	4.92
411.98	4.41
412.186	4.86
412.392	4.38
412.598	4.54
412.804	4.76
413.01	4.59
413.216	3.57
413.422	3.02
413.628	3.26
413.834	3.58
414.04	3.16
414.246	3.47
414.452	2.1
414.658	2.22
414.864	1.78
415.07	1.48
415.275	1.09
415.481	1.51
415.687	1.99
415.893	1.73
416.099	1.72
416.305	1.65
416.511	1.7
416.716	2.41
416.922	2.98
417.128	3
417.334	2.68
417.539	3.05
417.745	3.29
417.951	3.38
418.157	3.29
418.362	3.75
418.568	3.45
418.774	3.42
418.979	3.15
419.185	2.93
419.391	3.31
419.596	3.69
419.802	3.94
420.008	3.91
420.213	4.33
420.419	4.38
420.624	4.13
420.83	4.37
421.035	4.25
421.241	4.36
421.446	4.56
421.652	4.23
421.857	4.03
422.063	3.73
422.268	3.75
422.474	3.43
422.679	3.54
422.885	3.69
423.09	3.54
423.295	3.89
423.501	3.76
423.706	3.38
423.911	3.24
424.117	3.36
424.322	3.49
424.527	3.35
424.733	3.15
424.938	3.04
425.143	2.96
425.349	3.06
425.554	2.96
425.759	3.26
425.964	3.59
426.169	4.17
426.375	3.89
426.58	3.67
426.785	3.67
426.99	3.69
427.195	3.75
427.4	3.72
427.605	3.63
427.811	3.37
428.016	3.23
428.221	2.84
428.426	2.41
428.631	2.49
428.836	2.76
429.041	3.01
429.246	2.4
429.451	2.31
429.656	2.48
429.861	2.21
430.066	2.58
430.271	2.49
430.476	2.58
430.681	2.52
430.886	3.04
431.09	3.45
431.295	3.16
431.5	3.97
431.705	4.1
431.91	4.2
432.115	4.87
432.32	4.48
432.524	4.4
432.729	4.53
432.934	4.65
433.139	4.25
433.343	3.86
433.548	3.97
433.753	4
433.958	4.27
434.162	4.16
434.367	4.15
434.572	4.27
434.776	4.02
434.981	3.57
435.186	4.15
435.39	4.41
435.595	4.57
435.799	4.62
436.004	4.54
436.209	3.93
436.413	3.71
436.618	3.33
436.822	3.26
437.027	3.39
437.231	3.6
437.436	3
437.64	3.06
437.845	2.88
438.049	3.03
438.253	2.67
438.458	2.94
438.662	2.66
438.867	2.52
439.071	2.45
439.275	2.88
439.48	3.24
439.684	3.2
439.888	3.05
440.093	3.21
440.297	3.14
440.501	3.11
440.706	2.54
440.91	2.74
441.114	3.12
441.318	3.18
441.523	2.76
441.727	2.46
441.931	2.82
442.135	2.68
442.339	2.55
442.543	2.51
442.748	2.59
442.952	3.48
443.156	3.45
443.36	3.04
443.564	2.59
443.768	2.91
443.972	2.99
444.176	2.94
444.38	2.97
444.584	3.28
444.788	3.22
444.992	3.42
445.196	3.13
445.4	2.82
445.604	2.87
445.808	3
446.012	2.69
446.216	2.52
446.42	2.25
446.624	2.64
446.828	2.35
447.032	2.51
447.235	2.28
447.439	2.6
447.643	2.94
447.847	3.36
448.051	3.53
448.254	3.53
448.458	3.46
448.662	3.61
448.866	3.3
449.069	3.29
449.273	2.9
449.477	3.03
449.681	2.57
449.884	2.82
450.088	2.26
450.292	2.22
450.495	2.46
450.699	2.78
450.902	2.8
451.106	2.75
451.31	2.58
451.513	2.54
451.717	2.57
451.92	2.93
452.124	2.93
452.327	3.14
452.531	3.08
452.734	3
452.938	2.78
453.141	2.62
453.345	2.29
453.548	2.56
453.752	2.67
453.955	2.54
454.158	1.72
454.362	1.64
454.565	1.75
454.769	1.7
454.972	1.79
455.175	1.9
455.379	1.83
455.582	2.15
455.785	2.44
455.988	2.72
456.192	2.64
456.395	2.88
456.598	3.01
456.801	3.3
457.005	3.92
457.208	3.46
457.411	3.89
457.614	3.85
457.817	3.37
458.021	2.99
458.224	2.79
458.427	2.96
458.63	3.03
458.833	2.87
459.036	2.52
459.239	2.2
459.442	2.47
459.645	2.07
459.848	2.17
460.051	2.56
460.254	2.58
460.457	2.57
460.66	2.45
460.863	2.51
461.066	2.19
461.269	2.12
461.472	2.44
461.675	2.12
461.878	2.01
462.081	2.13
462.284	2.38
462.486	2.13
462.689	2.22
462.892	2.42
463.095	2.31
463.298	2.51
463.5	2.56
463.703	1.85
463.906	2.5
464.109	2.81
464.311	2.49
464.514	2.18
464.717	2.76
464.92	2.7
465.122	2.89
465.325	2.93
465.528	3.02
465.73	2.91
465.933	3.06
466.135	3.05
466.338	3.45
466.541	3.92
466.743	4.04
466.946	3.9
467.148	4.11
467.351	4
467.553	4.05
467.756	4.26
467.958	4.44
468.161	4.2
468.363	3.9
468.566	3.23
468.768	2.71
468.971	2.58
469.173	2.45
469.375	2.32
469.578	2.21
469.78	2.46
469.983	2.42
470.185	2.67
470.387	2.87
470.59	2.77
470.792	2.83
470.994	2.82
471.196	2.49
471.399	2.32
471.601	2.25
471.803	2.67
472.005	2.6
472.208	2.47
472.41	1.98
472.612	2.36
472.814	2.67
473.016	3.16
473.218	3.56
473.421	3.82
473.623	4.14
473.825	4.17
474.027	3.65
474.229	3.66
474.431	3.55
474.633	3.54
474.835	3.77
475.037	3.42
475.239	3.17
475.441	2.74
475.643	2.83
475.845	2.56
476.047	2.53
476.249	2.84
476.451	2.74
476.653	3
476.855	3.08
477.057	2.98
477.258	3.21
477.46	2.99
477.662	3.08
477.864	2.6
478.066	2.86
478.268	2.54
478.469	2.47
478.671	2.7
478.873	2.84
479.075	2.67
479.276	2.47
479.478	2.3
479.68	2.66
479.882	2.7
480.083	3.26
480.285	3.14
480.487	3.45
480.688	3.37
480.89	3.15
481.091	2.91
481.293	3
481.495	3.04
481.696	3.2
481.898	3.08
482.099	3.15
482.301	3.13
482.502	3.1
482.704	2.9
482.905	2.9
483.107	2.85
483.308	2.77
483.51	2.77
483.711	2.74
483.913	2.67
484.114	2.66
484.315	2.58
484.517	2.53
484.718	2.52
484.92	2.59
485.121	2.42
485.322	2.43
485.524	2.5
485.725	2.52
485.926	2.44
486.127	2.44
486.329	2.46
486.53	2.54
486.731	2.53
486.932	2.57
487.134	2.66
487.335	2.74
487.536	2.84
487.737	2.8
487.938	2.79
488.139	2.73
488.341	2.69
488.542	2.44
488.743	2.42
488.944	2.29
489.145	2.29
489.346	2.33
489.547	2.31
489.748	2.05
489.949	2.15
490.15	2.27
490.351	2.59
490.552	2.62
490.753	2.86
490.954	2.75
491.155	2.8
491.356	2.78
491.557	2.7
491.758	2.86
491.959	2.92
492.159	3.05
492.36	2.93
492.561	2.77
492.762	2.81
492.963	2.89
493.164	3.1
493.364	3.25
493.565	3.31
493.766	3.61
493.967	3.57
494.167	3.81
494.368	3.66
494.569	3.84
494.769	4.02
494.97	4.15
495.171	3.78
495.371	3.89
495.572	3.57
495.773	3.29
495.973	3.16
496.174	3.04
496.375	3.2
496.575	3.14
496.776	3.08
496.976	2.93
497.177	2.77
497.377	3.2
497.578	3.09
497.778	3.18
497.979	3.54
498.179	3.47
498.38	3.74
498.58	3.69
498.78	3.86
498.981	3.94
499.181	4.09
499.382	4.03
499.582	3.52
499.782	3.06
499.983	3.23
500.183	3.08
500.383	3.09
500.584	2.9
500.784	3.09
500.984	3.34
501.184	3.35
501.385	3.05
501.585	3.11
501.785	3.65
501.985	4.07
502.185	4.23
502.386	4.11
502.586	4.22
502.786	4.19
502.986	3.73
503.186	3.87
503.386	4.02
503.586	4.25
503.786	4.03
503.987	3.82
504.187	3.71
504.387	3.7
504.587	3.9
504.787	3.96
504.987	3.94
505.187	4.23
505.387	3.84
505.587	3.72
505.786	3.59
505.986	3.8
506.186	3.73
506.386	3.58
506.586	3.61
506.786	3.32
506.986	3.38
507.186	3.54
507.386	3.67
507.585	3.49
507.785	3.68
507.985	3.64
508.185	3.58
508.384	3.65
508.584	3.98
508.784	4.24
508.984	4.16
509.183	3.92
509.383	3.65
509.583	3.52
509.782	3.92
509.982	3.61
510.182	3.54
510.381	3.78
510.581	3.99
510.781	3.56
510.98	3.13
511.18	3.19
511.379	3.12
511.579	3.01
511.778	2.95
511.978	2.77
512.177	2.8
512.377	2.89
512.576	2.76
512.776	2.45
512.975	2.72
513.175	2.89
513.374	2.96
513.573	3.31
513.773	3.7
513.972	3.97
514.172	4
514.371	4.27
514.57	4.29
514.77	4.4
514.969	4.69
515.168	5.06
515.367	5.01
515.567	5.14
515.766	5.33
515.965	5.2
516.164	4.98
516.364	4.69
516.563	4.6
516.762	4.61
516.961	4.66
517.16	4.55
517.359	4.43
517.559	4.48
517.758	4.42
517.957	4.3
518.156	4.59
518.355	4.74
518.554	4.86
518.753	4.78
518.952	4.78
519.151	4.8
519.35	4.98
519.549	4.85
519.748	4.8
519.947	5.1
520.146	4.95
520.345	4.58
520.544	4.25
520.743	4.54
520.942	4.97
521.141	5.18
521.339	5.16
521.538	5.13
521.737	5.28
521.936	5.2
522.135	5.3
522.333	5.54
522.532	5.5
522.731	5.7
522.93	5.44
523.129	5.02
523.327	4.84
523.526	4.92
523.725	5.27
523.923	5.66
524.122	5.8
524.321	5.57
524.519	5.61
524.718	5.99
524.917	5.97
525.115	6.16
525.314	6.37
525.512	6.68
525.711	6.55
525.909	6.29
526.108	6.17
526.306	6.08
526.505	6.23
526.703	6.16
526.902	6.1
527.1	6.1
527.299	6.01
527.497	5.92
527.696	5.86
527.894	5.96
528.092	5.96
528.291	5.85
528.489	5.78
528.688	5.82
528.886	5.86
529.084	5.85
529.283	5.99
529.481	5.98
529.679	5.95
529.877	5.91
530.076	5.88
530.274	6.04
530.472	6.17
530.67	6.48
530.869	6.26
531.067	6.17
531.265	6.28
531.463	6.2
531.661	6.46
531.859	6.47
532.057	6.48
532.255	6.55
532.454	6.35
532.652	6.18
532.85	6.17
533.048	6.12
533.246	6.31
533.444	6.3
533.642	6.27
533.84	6.32
534.038	6.33
534.236	6.42
534.434	6.47
534.632	6.68
534.83	6.83
535.027	7.01
535.225	7.17
535.423	6.81
535.621	6.7
535.819	6.77
536.017	6.39
536.215	6.55
536.412	6.59
536.61	6.59
536.808	6.79
537.006	6.68
537.203	6.86
537.401	6.97
537.599	7.49
537.797	7.5
537.994	7.55
538.192	8.01
538.39	8.17
538.587	8.24
538.785	8.11
538.983	8.02
539.18	8.38
539.378	8.28
539.575	8.21
539.773	8.13
539.97	8.42
540.168	8.47
540.366	8.41
540.563	8.31
540.761	8.26
540.958	8.31
541.155	8.41
541.353	8.37
541.55	8.33
541.748	8.48
541.945	8.48
542.143	8.59
542.34	8.64
542.537	8.68
542.735	8.78
542.932	8.93
543.129	9.03
543.327	8.98
543.524	9.06
543.721	9.25
543.919	9.32
544.116	9.27
544.313	9.01
544.51	8.98
544.708	8.9
544.905	9.01
545.102	9.02
545.299	9.09
545.496	9.03
545.693	9.03
545.891	8.8
546.088	8.76
546.285	8.88
546.482	8.94
546.679	8.87
546.876	9.16
547.073	9.13
547.27	9.16
547.467	9.51
547.664	9.58
547.861	9.84
548.058	9.64
548.255	9.59
548.452	9.72
548.649	9.77
548.846	10.07
549.043	9.87
549.24	9.63
549.437	9.77
549.633	9.35
549.83	9.37
550.027	9.43
550.224	9.88
550.421	10.5
550.618	10.48
550.814	10.46
551.011	10.77
551.208	11.15
551.405	11.57
551.601	11.86
551.798	11.9
551.995	11.92
552.191	11.83
552.388	12.19
552.585	11.64
552.781	11.98
552.978	12.14
553.175	11.69
553.371	12.02
553.568	12.2
553.764	11.72
553.961	11.82
554.157	12.03
554.354	12.07
554.55	11.86
554.747	12.46
554.943	12.41
555.14	12.43
555.336	12.68
555.533	12.26
555.729	12.35
555.926	12.87
556.122	13.26
556.318	13.46
556.515	13.8
556.711	13.99
556.907	13.97
557.104	14.38
557.3	14.66
557.496	15.09
557.693	15.28
557.889	15.21
558.085	15.06
558.281	14.71
558.478	14.95
558.674	15.12
558.87	15.52
559.066	15.54
559.262	15.56
559.459	15.37
559.655	15.28
559.851	15.87
560.047	15.88
560.243	16.12
560.439	16.85
560.635	16.32
560.831	15.87
561.027	16.01
561.223	16.3
561.419	16.23
561.615	16.8
561.811	16.56
562.007	16.1
562.203	16.65
562.399	16.29
562.595	16.01
562.791	16.47
562.987	17.06
563.183	16.53
563.379	16.5
563.575	16.35
563.771	16.19
563.966	16.55
564.162	16.74
564.358	16.62
564.554	17.42
564.75	17.35
564.945	17.63
565.141	17.38
565.337	17.74
565.533	17.74
565.728	18.14
565.924	18.1
566.12	18.46
566.315	18.84
566.511	18.62
566.707	18.37
566.902	19.11
567.098	19
567.293	19.53
567.489	19.66
567.684	19.96
567.88	19.72
568.076	20.04
568.271	20.2
568.467	20.4
568.662	20.87
568.858	20.97
569.053	20.46
569.248	20.93
569.444	21.27
569.639	21.3
569.835	21.48
570.03	21.8
570.225	21.56
570.421	21.31
570.616	20.88
570.812	21.03
571.007	21.08
571.202	21.04
571.397	20.89
571.593	20.57
571.788	20.59
571.983	20.4
572.178	20.32
572.374	20.49
572.569	20.63
572.764	20.87
572.959	20.65
573.154	20.96
573.35	21.36
573.545	21.53
573.74	21.6
573.935	21.83
574.13	21.97
574.325	22
574.52	22.26
574.715	22.24
574.91	22.34
575.105	22.52
575.3	22.38
575.495	22.07
575.69	22.28
575.885	22.09
576.08	21.82
576.275	21.81
576.47	21.83
576.665	21.79
576.86	21.6
577.055	21.68
577.25	21.99
577.444	22.22
577.639	22.35
577.834	22.34
578.029	22.99
578.224	23.33
578.418	23.41
578.613	23.7
578.808	23.9
579.003	24.45
579.197	24.17
579.392	24.48
579.587	24.52
579.781	24.86
579.976	24.4
580.171	24.1
580.365	23.81
580.56	23.99
580.755	23.88
580.949	23.82
581.144	23.77
581.338	24.12
581.533	23.85
581.727	23.84
581.922	23.89
582.116	24.19
582.311	23.88
582.505	24.8
582.7	24.67
582.894	24.96
583.089	25.06
583.283	25.05
583.478	24.73
583.672	25.02
583.866	25.3
584.061	25.19
584.255	25.59
584.449	25.95
584.644	25.33
584.838	25.5
585.032	25.49
585.226	25.71
585.421	26.24
585.615	26.09
585.809	25.78
586.003	25.32
586.198	25.65
586.392	25.52
586.586	25.21
586.78	25.24
586.974	25.63
587.168	26.05
587.363	25.92
587.557	25.79
587.751	26.62
587.945	26.7
588.139	26.85
588.333	26.8
588.527	27.11
588.721	27.51
588.915	27.87
589.109	28.22
589.303	28.06
589.497	27.87
589.691	27.97
589.885	27.25
590.079	27.16
590.273	27.61
590.466	27.25
590.66	26.94
590.854	26.82
591.048	26.78
591.242	26.31
591.436	25.79
591.629	26.38
591.823	25.94
592.017	26.18
592.211	26.58
592.404	26.33
592.598	27.33
592.792	27.96
592.986	28.26
593.179	28.25
593.373	28.32
593.567	28.53
593.76	28.42
593.954	28.5
594.147	29.11
594.341	29.21
594.535	29.22
594.728	29
594.922	28.47
595.115	28.23
595.309	27.86
595.502	27.65
595.696	27.79
595.889	27.76
596.083	28.25
596.276	28.04
596.47	27.95
596.663	27.88
596.856	27.73
597.05	27.6
597.243	28.48
597.437	28.84
597.63	29.53
597.823	29.4
598.017	29.49
598.21	29.1
598.403	29.05
598.596	28.95
598.79	29.21
598.983	29.16
599.176	29.72
599.369	28.85
599.563	28.91
599.756	28.18
599.949	28.84
600.142	28.72
600.335	29.04
600.528	28.81
600.722	29
600.915	29.18
601.108	29.4
601.301	29.46
601.494	29.57
601.687	29.12
601.88	28.94
602.073	28.83
602.266	28.67
602.459	28.04
602.652	28.27
602.845	28.56
603.038	28.58
603.231	28.53
603.424	28.44
603.617	28.98
603.809	29.78
604.002	30.19
604.195	30.02
604.388	30.08
604.581	30.45
604.774	30.53
604.966	30.05
605.159	29.79
605.352	29.93
605.545	29.65
605.737	29.13
605.93	28.89
606.123	28.51
606.316	28.54
606.508	28.75
606.701	29.03
606.894	28.68
607.086	28.8
607.279	29.17
607.471	29.14
607.664	29.68
607.857	29.66
608.049	29.76
608.242	30.12
608.434	30.63
608.627	30.67
608.819	31.03
609.012	31.11
609.204	31.42
609.397	30.89
609.589	30.73
609.782	30.39
609.974	30.28
610.166	30.22
610.359	30.3
610.551	30.07
610.743	30.11
610.936	29.6
611.128	30.36
611.32	30.12
611.513	30.85
611.705	31.24
611.897	31.67
612.09	32.2
612.282	32.2
612.474	31.73
612.666	31.61
612.858	31.87
613.051	31.63
613.243	30.99
613.435	30.73
613.627	30.21
613.819	30.01
614.011	30.04
614.203	29.5
614.395	29.65
614.588	30.55
614.78	31.25
614.972	31.44
615.164	31.86
615.356	31.91
615.548	32.78
615.74	33.45
615.932	34.16
616.124	33.33
616.315	33.65
616.507	32.94
616.699	32.58
616.891	31.81
617.083	31.61
617.275	31.86
617.467	33.05
617.659	32.91
617.85	32.79
618.042	32.15
618.234	32.28
618.426	32.28
618.618	32.96
618.809	32.48
619.001	32.79
619.193	32.72
619.384	32.57
619.576	32.11
619.768	31.37
619.959	30.95
620.151	30.76
620.343	31.37
620.534	31.09
620.726	30.98
620.917	31.77
621.109	32.47
621.301	32.69
621.492	32.67
621.684	32.43
621.875	32.68
622.067	33.4
622.258	33.17
622.45	33.1
622.641	33.05
622.832	32.28
623.024	31.68
623.215	30.89
623.407	31.33
623.598	30.79
623.789	31.45
623.981	31.75
624.172	31.39
624.363	32.08
624.555	32.01
624.746	32.38
624.937	32.46
625.129	32.51
625.32	32.72
625.511	32.88
625.702	33.12
625.893	32.42
626.085	32.5
626.276	32.71
626.467	32.8
626.658	32.92
626.849	32.86
627.04	33.75
627.231	34.82
627.422	34.91
627.614	34.68
627.805	35.06
627.996	35.3
628.187	35.28
628.378	34.65
628.569	34.44
628.76	34.1
628.951	34.51
629.142	34.66
629.332	33.85
629.523	33.59
629.714	33.16
629.905	33.08
630.096	33.4
630.287	34.15
630.478	34.74
630.669	34.93
630.859	35.12
631.05	35.06
631.241	34.52
631.432	34.51
631.623	34.6
631.813	34.84
632.004	34.88
632.195	34.11
632.385	33.26
632.576	33.08
632.767	32.54
632.957	32.86
633.148	32.41
633.339	32.19
633.529	32.56
633.72	32.14
633.91	31.79
634.101	31.7
634.292	32.14
634.482	31.91
634.673	33.11
634.863	33.75
635.054	33.45
635.244	33.51
635.435	34.08
635.625	33.98
635.815	34.48
636.006	35.17
636.196	35.65
636.387	35.89
636.577	36.04
636.767	34.76
636.958	34.5
637.148	34.62
637.338	34.62
637.529	34.29
637.719	34.05
637.909	33.89
638.099	33.91
638.29	33.72
638.48	33.47
638.67	33.54
638.86	34.46
639.05	34.35
639.241	34.46
639.431	35.75
639.621	36.4
639.811	37.06
640.001	37.48
640.191	37.22
640.381	37.62
640.571	38.1
640.761	38.14
640.951	37.15
641.141	37.18
641.331	37.49
641.521	35.8
641.711	35.4
641.901	34.45
642.091	33.79
642.281	33.94
642.471	33.44
642.661	33.06
642.851	33.18
643.041	34.25
643.231	34.08
643.42	34.27
643.61	34.98
643.8	34.53
643.99	34.93
644.18	35.36
644.369	35.74
644.559	36.15
644.749	36.15
644.939	37.02
645.128	36.7
645.318	36.73
645.508	37.07
645.697	36.97
645.887	37.32
646.076	37.34
646.266	37.1
646.456	35.79
646.645	35.39
646.835	35.59
647.024	34.23
647.214	33.99
647.403	34.2
647.593	33.5
647.782	33.61
647.972	33.82
648.161	34.37
648.351	34.84
648.54	35.62
648.73	35.56
648.919	35.39
649.108	35.5
649.298	35.95
649.487	36.13
649.677	36.03
649.866	36.13
650.055	36.26
650.244	36.04
650.434	35.35
650.623	35.62
650.812	36.14
651.002	36.31
651.191	37.21
651.38	36.25
651.569	36.61
651.758	37.32
651.947	37.17
652.137	36.84
652.326	36.52
652.515	37.08
652.704	36.54
652.893	36.94
653.082	37.22
653.271	37.14
653.46	37.52
653.649	37.51
653.838	37.4
654.027	37.38
654.216	38.06
654.405	38.37
654.594	38.73
654.783	38.45
654.972	37.1
655.161	37.14
655.35	36.37
655.539	37.14
655.728	36.89
655.916	36.3
656.105	36.46
656.294	36.61
656.483	36.84
656.672	36.09
656.86	36.75
657.049	37.15
657.238	36.54
657.427	37.47
657.615	36.06
657.804	36.32
657.993	36.28
658.181	36.15
658.37	35.4
658.559	35.05
658.747	35.67
658.936	34.78
659.125	33.63
659.313	33.51
659.502	33.77
659.69	34.57
659.879	34.01
660.067	34.75
660.256	35.01
660.444	35.22
660.633	35.57
660.821	35.22
661.01	36.53
661.198	38.18
661.387	38.53
661.575	38.29
661.763	39.12
661.952	39.25
662.14	38.93
662.328	38.81
662.517	38.96
662.705	38.49
662.893	38.31
663.082	37.62
663.27	37.9
663.458	38.31
663.646	38.19
663.834	37.7
664.023	38.05
664.211	38.4
664.399	38.4
664.587	38.22
664.775	38.07
664.963	38.82
665.152	39.76
665.34	39.78
665.528	39.51
665.716	40.31
665.904	39.59
666.092	39.88
666.28	39.15
666.468	39.01
666.656	39.61
666.844	39.09
667.032	38.68
667.22	37.83
667.408	38.21
667.596	38.05
667.784	36.93
667.971	37.44
668.159	37.95
668.347	37.94
668.535	37.31
668.723	36.86
668.911	37.37
669.098	37.95
669.286	37.89
669.474	37.29
669.662	37.94
669.849	38.23
670.037	38.88
670.225	37.67
670.413	37.46
670.6	38.67
670.788	39.63
670.976	40.54
671.163	40.48
671.351	40.81
671.538	41.13
671.726	39.84
671.913	39.78
672.101	39.71
672.289	40.68
672.476	41.55
672.664	41.25
672.851	39.76
673.039	39.54
673.226	38.21
673.413	38.11
673.601	37.88
673.788	38.29
673.976	37.14
674.163	38.33
674.35	38.75
674.538	38.84
674.725	38.7
674.912	39.28
675.1	39.57
675.287	40.36
675.474	40.34
675.662	40.16
675.849	40.66
676.036	41.56
676.223	39.92
676.411	39.29
676.598	38.59
676.785	38.99
676.972	39.5
677.159	38.31
677.346	38.45
677.533	38.26
677.721	38.1
677.908	38.48
678.095	38.53
678.282	38.63
678.469	39.25
678.656	40.28
678.843	39.04
679.03	38.46
679.217	39.26
679.404	39.75
679.591	40.35
679.778	40.58
679.964	40.23
680.151	40.81
680.338	41.17
680.525	40.7
680.712	39.24
680.899	41.01
681.086	40.97
681.272	40.94
681.459	40.56
681.646	40.54
681.833	40.79
682.02	41.52
682.206	40.8
682.393	41.05
682.58	40.49
682.766	41.75
682.953	40.48
683.14	41.04
683.326	40.78
683.513	40.64
683.7	40.8
683.886	40.43
684.073	39.31
684.259	40.6
684.446	40.51
684.632	40.89
684.819	40.28
685.005	41.3
685.192	41.13
685.378	41.43
685.565	42.42
685.751	41.25
685.938	41.49
686.124	41.67
686.31	41.25
686.497	41.23
686.683	41.19
686.87	41.59
687.056	41.42
687.242	41.35
687.429	42.43
687.615	41.57
687.801	42.86
687.987	43.24
688.174	44.27
688.36	43.6
688.546	42.86
688.732	43.02
688.918	42.8
689.105	42.77
689.291	42.93
689.477	42
689.663	43.86
689.849	42.74
690.035	42.35
690.221	41.7
690.407	41.91
690.593	42.28
690.779	42.3
690.965	43.1
691.151	42.16
691.337	42.66
691.523	41.98
691.709	39.49
691.895	40.99
692.081	42.65
692.267	43.64
692.453	43.91
692.639	44.93
692.825	45.63
693.011	45.52
693.196	47.29
693.382	46.18
693.568	47.37
693.754	48.21
693.94	48.33
694.125	47.28
694.311	47.84
694.497	48.23
694.682	47.71
694.868	47.14
695.054	46.73
695.239	45.57
695.425	45.97
695.611	44.72
695.796	44.32
695.982	42.11
696.168	42.02
696.353	41.6
696.539	40.71
696.724	41.05
696.91	40.86
697.095	40.67
697.281	41.26
697.466	40.59
697.652	40.15
697.837	40.5
698.023	41.48
698.208	41.01
698.393	40.52
698.579	41.09
698.764	40.18
698.949	40.49
699.135	40.77
699.32	39.86
699.505	40.92
699.691	41.42
699.876	41.71
700.061	42.1
700.246	43.19
700.432	43.84
700.617	43.26
700.802	43.31
700.987	43.75
701.172	41.75
701.358	41.88
701.543	41.51
701.728	41.8
701.913	41.06
702.098	40.86
702.283	41.26
702.468	40.21
702.653	38.75
702.838	40.41
703.023	41.07
703.208	43.31
703.393	45.18
703.578	46.1
703.763	46.49
703.948	47
704.133	46.38
704.318	44.98
704.503	45.23
704.688	46.04
704.873	45.06
705.057	43.2
705.242	42.59
705.427	41.19
705.612	39.61
705.797	39.79
705.981	39.59
706.166	39.1
706.351	39.44
706.536	39.2
706.72	40.56
706.905	40.41
707.09	41.82
707.274	41.4
707.459	41.01
707.644	42.26
707.828	42.7
708.013	42.43
708.197	43.06
708.382	42.79
708.567	43.19
708.751	43.58
708.936	44.01
709.12	41.62
709.305	42.68
709.489	43.3
709.673	44.57
709.858	44.04
710.042	44.19
710.227	43.67
710.411	43.11
710.596	42.99
710.78	42.08
710.964	41.54
711.149	43.18
711.333	42.74
711.517	43.28
711.702	42.21
711.886	42.54
712.07	42.41
712.254	44.31
712.438	45.93
712.623	46.03
712.807	45.75
712.991	45.25
713.175	45.85
713.359	46.3
713.544	45.66
713.728	46.17
713.912	47.06
714.096	46.63
714.28	46.5
714.464	46.66
714.648	47.36
714.832	47.31
715.016	48.4
715.2	47.59
715.384	47.48
715.568	47.78
715.752	47.53
715.936	47.58
716.12	47.24
716.304	46.12
716.488	45.22
716.671	43.78
716.855	44.65
717.039	43.05
717.223	44.11
717.407	43.5
717.59	43.95
717.774	43.57
717.958	41.74
718.142	40.98
718.325	41.52
718.509	41.09
718.693	41.55
718.877	40.49
719.06	43.28
719.244	41.56
719.428	43.77
719.611	42.34
719.795	41.98
719.978	43.6
720.162	46.53
720.345	47.33
720.529	48.71
720.713	49.54
720.896	49.96
721.08	49.36
721.263	50.56
721.446	51.34
721.63	52.5
721.813	52.07
721.997	51.58
722.18	51.1
722.364	51.25
722.547	49.26
722.73	48.06
722.914	48.3
723.097	46.08
723.28	45.66
723.464	43.32
723.647	43
723.83	43.68
724.013	42.3
724.197	42.13
724.38	41.48
724.563	41.26
724.746	41.09
724.929	40.65
725.112	44.52
725.296	46.02
725.479	45.65
725.662	45.56
725.845	44.09
726.028	46.06
726.211	45.33
726.394	46.71
726.577	47.42
726.76	48.12
726.943	48.03
727.126	46.92
727.309	45.54
727.492	45.14
727.675	45.21
727.858	46.21
728.041	45.66
728.224	47.41
728.407	46.2
728.589	45.85
728.772	46.97
728.955	46.93
729.138	45.8
729.321	45.42
729.503	47.84
729.686	48.22
729.869	49.23
730.052	49.29
730.234	48.53
730.417	48.5
730.6	48.99
730.782	48.25
730.965	50.08
731.148	50.9
731.33	51.02
731.513	49.23
731.695	50.43
731.878	49.44
732.061	48.27
732.243	48.43
732.426	48.26
732.608	47.66
732.791	46.26
732.973	45.35
733.156	45.18
733.338	46.4
733.52	47.35
733.703	45.3
733.885	47.12
734.068	47.04
734.25	46.23
734.432	45.3
734.615	44.77
734.797	46.77
734.979	46.12
735.162	46.31
735.344	43.95
735.526	44.15
735.708	44.12
735.891	42.75
736.073	44.46
736.255	45.75
736.437	46.23
736.619	47.74
736.802	47.91
736.984	48
737.166	46.52
737.348	48.18
737.53	48.54
737.712	50.13
737.894	50.15
738.076	50.83
738.258	50.65
738.44	51.08
738.622	51.59
738.804	51.82
738.986	51.73
739.168	53.1
739.35	53.03
739.532	51.36
739.714	49.55
739.896	49.29
740.078	49.62
740.259	49.54
740.441	49.28
740.623	48.43
740.805	46.76
740.987	46.6
741.168	44.72
741.35	46.77
741.532	48.93
741.714	49.84
741.895	51.5
742.077	50.12
742.259	49.36
742.44	50.6
742.622	51.22
742.804	51.45
742.985	50.77
743.167	51.33
743.348	49.97
743.53	48.3
743.711	48.65
743.893	45.7
744.075	45.86
744.256	47.24
744.438	47.87
744.619	49.17
744.8	49.75
744.982	52.37
745.163	53.17
745.345	52.24
745.526	53.43
745.707	52.65
745.889	53.13
746.07	54.37
746.252	52.78
746.433	50.98
746.614	52.68
746.795	54.04
746.977	52.28
747.158	53.88
747.339	50.55
747.52	48.76
747.702	49.82
747.883	51.26
748.064	50.26
748.245	51.31
748.426	51.51
748.607	49.78
748.788	45.97
748.97	45.22
749.151	45
749.332	47.08
749.513	49.15
749.694	49.41
749.875	49.26
750.056	47.95
750.237	46.91
750.418	47.9
750.599	44.83
750.78	49.12
750.96	48.64
751.141	48.46
751.322	50.64
751.503	51.33
751.684	53
751.865	53.33
752.046	52.69
752.226	53.27
752.407	52.55
752.588	55.09
752.769	52.52
752.949	54.2
753.13	53.34
753.311	51.05
753.492	49.54
753.672	48.37
753.853	47.75
754.034	47.59
754.214	47.18
754.395	46.18
754.575	45.03
754.756	44.79
754.937	47.18
755.117	45.73
755.298	47.78
755.478	48.59
755.659	49.11
755.839	49.07
756.02	49.05
756.2	50
756.381	51.25
756.561	51.92
756.741	52.64
756.922	50.81
757.102	54.05
757.283	54.49
757.463	52.44
757.643	50.54
757.823	51.28
758.004	50.63
758.184	48.79
758.364	49.17
758.545	49.55
758.725	50.59
758.905	49.34
759.085	47.85
759.265	46.34
759.446	46.27
759.626	46.01
759.806	44.92
759.986	44.09
760.166	44.13
760.346	43.97
760.526	42.85
760.706	42.9
760.886	43.54
761.066	45.07
761.246	46.73
761.426	48.11
761.606	49.48
761.786	49.55
761.966	52.02
762.146	52.77
762.326	50.94
762.506	50.17
762.686	50.18
762.866	49.96
763.046	48.94
763.225	47.24
763.405	46.68
763.585	45.23
763.765	45.71
763.945	45.57
764.124	46.39
764.304	46.86
764.484	47.59
764.664	48.13
764.843	48.81
765.023	48.03
765.203	49.94
765.382	50.18
765.562	50.19
765.741	52.3
765.921	52.65
766.101	53.56
766.28	54.19
766.46	53.97
766.639	53.28
766.819	52.42
766.998	54.36
767.178	53.76
767.357	54.67
767.537	57.43
767.716	53.96
767.896	55.2
768.075	51.76
768.254	50.96
768.434	51.1
768.613	51.84
768.792	52.64
768.972	52.64
769.151	52.85
769.33	54.49
769.51	51.33
769.689	53.15
769.868	50.37
770.047	50.35
770.226	51.35
770.406	51.38
770.585	51.08
770.764	51.74
770.943	49.05
771.122	49.92
771.301	47.17
771.48	49.26
771.66	46.49
771.839	48.64
772.018	51.88
772.197	53.35
772.376	54.72
772.555	54.86
772.734	52.2
772.913	53
773.092	52.19
773.271	53.26
773.449	54.8
773.628	55.82
773.807	54.67
773.986	51.39
774.165	52.32
774.344	49.61
774.523	50.17
774.701	55.52
774.88	56.31
775.059	54.94
775.238	55.64
775.417	54.67
775.595	55.93
775.774	53.55
775.953	57.49
776.131	53.58
776.31	55.61
776.489	56.65
776.667	54.88
776.846	57.85
777.025	57.65
777.203	58.07
777.382	57.76
777.56	59.38
777.739	59.94
777.917	58.34
778.096	57.49
778.274	56.63
778.453	55.8
778.631	55.13
778.81	52.35
778.988	52.09
779.166	50
779.345	51.22
779.523	49.76
779.702	51.69
779.88	52.75
780.058	57.22
780.237	57.52
780.415	55.43
780.593	56.52
780.771	58
780.95	61.45
781.128	61.09
781.306	58.8
781.484	60.77
781.662	60.95
781.841	60.13
782.019	60.14
782.197	60.52
782.375	59.4
782.553	63.85
782.731	61.74
782.909	59.23
783.087	57.55
783.265	55.39
783.443	54.8
783.621	53.1
783.799	53.02
783.977	49.39
784.155	50.74
784.333	55.51
784.511	47.49
784.689	45.3
784.867	45.87
785.045	50.43
785.223	54.74
785.4	55.01
785.578	57.99
785.756	57.46
785.934	58.68
786.112	57.6
786.289	53.83
786.467	57.67
786.645	59.05
786.823	61.2
787	57.16
787.178	55.89
787.356	51.25
787.533	47.5
787.711	47.18
787.889	49.36
788.066	48.51
788.244	50.01
788.421	50.53
788.599	54.61
788.776	50.39
788.954	52.05
789.131	52.03
789.309	55.11
789.486	54.13
789.664	54.35
789.841	50.55
790.019	47.79
790.196	44.67
790.373	43.69
790.551	35.2
790.728	38.73
790.906	40.38
791.083	42.3
791.26	43.83
791.437	45.56
791.615	46.59
791.792	49.29
791.969	53.28
792.146	54.46
792.324	55.25
792.501	62.22
792.678	60.08
792.855	60.04
793.032	58.98
793.209	54.78
793.387	58.57
793.564	60.56
793.741	58.64
793.918	59.96
794.095	61.19
794.272	62.76
794.449	61.17
794.626	62.66
794.803	58.57
794.98	58.17
795.157	59.75
795.334	60.86
795.511	58.8
795.688	58.99
795.864	59.74
796.041	59.98
796.218	57.91
796.395	57.42
796.572	57.33
796.749	63.07
796.925	64.38
797.102	63.83
797.279	59.89
797.456	60.99
797.632	61.97
797.809	60.58
797.986	58.5
798.162	54.98
798.339	55.26
798.516	55.07
798.692	50.87
798.869	50.24
799.046	50.07
799.222	50.73
799.399	46.9
799.575	47.95
799.752	47.95
799.928	53.76
800.105	57.17
800.281	55.18
800.458	57.46
800.634	58.22
800.811	56.6
800.987	62.3
801.163	59.84
801.34	61.76
801.516	61.32
801.692	63.23
801.869	56.54
802.045	54.76
802.221	56.03
802.398	54.17
802.574	55.29
802.75	56.61
802.926	49.44
803.103	56.67
803.279	59.21
803.455	57.39
803.631	51.96
803.807	55.65
803.983	55.35
804.16	54.41
804.336	50.13
804.512	46.19
804.688	46.63
804.864	45.16
805.04	43.05
805.216	40.07
805.392	40.85
805.568	44.52
805.744	43.23
805.92	49.98
806.096	53
806.272	55.59
806.448	56.59
806.623	53.31
806.799	55.81
806.975	53.76
807.151	51.6
807.327	51.08
807.503	51.74
807.678	54.4
807.854	53.93
808.03	53.33
808.206	57.72
808.381	61.4
808.557	63.57
808.733	65.14
808.908	65.52
809.084	64.2
809.26	64.96
809.435	63.74
809.611	58.95
809.787	54.74
809.962	52.46
810.138	49.45
810.313	45.85
810.489	44.71
810.664	44.3
810.84	45.84
811.015	45.35
811.191	47.35
811.366	48.63
811.542	48.82
811.717	50.2
811.892	54.07
812.068	55.62
812.243	60.48
812.419	63.37
812.594	65.33
812.769	61.75
812.944	64.74
813.12	65.66
813.295	63.11
813.47	63.97
813.645	61.86
813.821	58.15
813.996	56.98
814.171	55.34
814.346	51.35
814.521	51.74
814.697	50.97
814.872	48.07
815.047	46.87
815.222	51.92
815.397	53.18
815.572	53.24
815.747	56.68
815.922	54.29
816.097	55.03
816.272	54.8
816.447	50
816.622	54.07
816.797	57.25
816.972	59.22
817.147	53.65
817.322	55.58
817.496	58.01
817.671	55.34
817.846	55.4
818.021	54.16
818.196	58.28
818.371	56.86
818.545	55.29
818.72	56.15
818.895	55.15
819.069	60.15
819.244	58.08
819.419	57.58
819.594	56.49
819.768	55.57
819.943	54.3
820.117	51.93
820.292	51.97
820.467	49.42
820.641	47.52
820.816	45.95
820.99	44.33
821.165	44.21
821.339	42.57
821.514	43.05
821.688	42.85
821.863	42.41
822.037	42.45
822.212	42.28
822.386	42.43
822.56	41.87
822.735	41.71
822.909	41.55
823.084	40.74
823.258	41.46
823.432	41.09
823.606	40.08
823.781	40.8
823.955	40.37
824.129	40.86
824.303	41.75
824.478	42.41
824.652	42.53
824.826	42.19
825	42.61
825.174	42.57
825.348	42.75
825.523	44.91
825.697	45.08
825.871	45.27
826.045	45.06
826.219	43.97
826.393	43.15
826.567	42.72
826.741	43.74
826.915	44.51
827.089	44.27
827.263	44.43
827.437	43.33
827.611	43.43
827.784	43.66
827.958	43.3
828.132	43.63
828.306	45.99
828.48	47.97
828.654	46.7
828.827	47.96
829.001	48.18
829.175	47.77
829.349	50.3
829.522	48.34
829.696	49.23
829.87	51.91
830.044	53.46
830.217	51.75
830.391	52.01
830.565	53.55
830.738	53.52
830.912	54.17
831.085	55.46
831.259	52.44
831.432	54.96
831.606	51.68
831.779	49.05
831.953	48.44
832.126	49.64
832.3	46.4
832.473	43.96
832.647	41.98
832.82	41.1
832.994	42.12
833.167	42.88
833.34	41.33
833.514	43.19
833.687	41.5
833.86	41.28
834.034	40.77
834.207	43.66
834.38	43.84
834.553	45.94
834.727	48.27
834.9	49.07
835.073	49.5
835.246	50.62
835.419	48.85
835.593	48.99
835.766	50.43
835.939	49.32
836.112	48.66
836.285	48.94
836.458	44.62
836.631	39.75
836.804	35.63
836.977	34.12
837.15	38.43
837.323	40.49
837.496	47.06
837.669	37.08
837.842	35.52
838.015	35.08
838.188	38.51
838.361	41.79
838.533	45.12
838.706	41.55
838.879	42.96
839.052	39.45
839.225	41.72
839.398	41.96
839.57	46.76
839.743	50.32
839.916	48.53
840.088	48.15
840.261	49.79
840.434	49.07
840.607	52.38
840.779	52.74
840.952	51.07
841.124	49.8
841.297	47.55
841.47	47.53
841.642	45.68
841.815	49.56
841.987	50.44
842.16	53.73
842.332	56.84
842.505	53.79
842.677	58.55
842.85	61.23
843.022	59.75
843.194	61.32
843.367	64.65
843.539	71.48
843.712	66.13
843.884	65.85
844.056	66.2
844.229	68.79
844.401	73.53
844.573	72.22
844.745	65.58
844.918	69.35
845.09	62.8
845.262	62.89
845.434	50.51
845.606	63.65
845.779	64.69
845.951	66.67
846.123	58.66
846.295	61.26
846.467	63.89
846.639	65.39
846.811	67.23
846.983	74.85
847.155	72
847.327	77.35
847.499	70.09
847.671	73.69
847.843	63.32
848.015	63.59
848.187	62.67
848.359	62.22
848.531	64.45
848.703	49.3
848.875	50.75
849.047	55.24
849.218	57.22
849.39	57.03
849.562	49.48
849.734	53.94
849.905	58.76
850.077	55.84
850.249	55.08
850.421	54.89
850.592	69.48
850.764	74.54
850.936	69.75
851.107	74.95
851.279	68.27
851.451	64.54
851.622	63.65
851.794	64.09
851.965	69.36
852.137	60.74
852.308	63.83
852.48	55.67
852.651	44.15
852.823	38.14
852.994	30.81
853.166	31.15
853.337	34.4
853.509	24.53
853.68	24.58
853.851	16.28
854.023	25.58
854.194	16.99
854.365	15.12
854.537	8.93
854.708	25.12
854.879	32.78
855.05	34.39
855.222	42.47
855.393	51.68
855.564	51.32
855.735	56.68
855.906	55.63
856.078	62.33
856.249	79.22
856.42	82.28
856.591	71.82
856.762	62.15
856.933	68.55
857.104	50
857.275	50.77
857.446	41.22
857.617	29.12
857.788	34.08
857.959	25.95
858.13	11.38
858.301	19.73
858.472	21.71
858.643	27.2
858.814	20.07
858.985	31.62
859.155	27.81
859.326	41.85
859.497	44.16
859.668	41.57
859.839	48.35
860.009	57.21
860.18	56.91
860.351	58.21
860.522	56.75
860.692	64.27
860.863	67.63
861.034	72.21
861.204	63.32
861.375	72.73
861.546	72.7
861.716	72.61
861.887	83.58
862.057	76.99
862.228	88.37
862.398	85.59
862.569	73.7
862.739	62.13
862.91	59.82
863.08	62.2
863.251	62.11
863.421	55.17
863.592	59.38
863.762	44.53
863.932	43.14
864.103	22.59
864.273	0.37
864.443	14.62
864.614	15.26
864.784	23.12
864.954	13.01
865.125	5.95
865.295	17.12
865.465	17.78
865.635	32.58
865.805	35.39
865.976	48.03
866.146	52.26
866.316	54.16
866.486	63.13
866.656	57.19
866.826	66
866.996	63.62
867.166	65.18
867.336	61.7
867.506	59.54
867.676	58.39
867.846	54.29
868.016	56.4
868.186	44.55
868.356	35.53
868.526	41.76
868.696	36.24
868.866	32.34
869.036	30.02
869.206	9.83
869.376	-1.72
869.545	2.67
869.715	21.26
869.885	15.35
870.055	19.31
870.224	24.71
870.394	12.81
870.564	11.52
870.734	13.73
870.903	13.5
871.073	19.91
871.243	19.61
871.412	27.93
871.582	26.02
871.751	29.61
871.921	20.8
872.091	14.58
872.26	22.16
872.43	23.52
872.599	25.11
872.769	24.19
872.938	29.46
873.108	35.52
873.277	36.24
873.446	41.45
873.616	26.81
873.785	43.16
873.955	55.09
874.124	54.25
874.293	44.86
874.463	53.52
874.632	61.27
874.801	60.05
874.971	50.58
875.14	42.61
875.309	34.14
875.478	44.95
875.647	53.44
875.817	46.72
875.986	46.13
876.155	49.76
876.324	52.84
876.493	47.45
876.662	50.47
876.831	54.23
877	64.88
877.17	74.18
877.339	73.32
877.508	64.85
877.677	71.17
877.846	71.13
878.015	67.7
878.184	63.12
878.352	63.99
878.521	59.11
878.69	53.38
878.859	43.3
879.028	36.91
879.197	40.12
879.366	41.6
879.534	41.06
879.703	42.61
879.872	45.08
880.041	43.48
880.21	44.99
880.378	43.26
880.547	42.81
880.716	44.96
880.884	48.19
881.053	46.76
881.222	47.53
881.39	45.99
881.559	44.42
881.727	42.01
881.896	43
882.065	43.41
882.233	42.91
882.402	43.38
882.57	43.78
882.739	41.69
882.907	40.14
883.076	41.28
883.244	41.23
883.412	43.73
883.581	46.04
883.749	45.04
883.918	43.85
884.086	45.5
884.254	46.94
884.423	46.46
884.591	48.1
884.759	48.96
884.927	44.64
885.096	46.31
885.264	40.02
885.432	39.69
885.6	42.64
885.769	43.44
885.937	43.66
886.105	44.43
886.273	39.78
886.441	38.34
886.609	39.94
886.777	39.24
886.945	36.95
887.113	49.06
887.281	41.76
887.449	33.96
887.617	28.17
887.785	29.11
887.953	29.86
888.121	36.55
888.289	31.53
888.457	30.32
888.625	46.96
888.793	49.11
888.961	46.28
889.129	62.41
889.296	68.25
889.464	74.9
889.632	75.85
889.8	77.83
889.967	79.75
890.135	84.85
