Data from JASIL_3106_Reflection_1.txt Node
Date: Thu Nov 12 19:45:27 EST 2015
User: Geneva
Spectrometer: USB4E03002
Autoset integration time: false
Trigger mode: 4
Integration Time (sec): 1.000000E-1
Scans to average: 10
Electric dark correction enabled: true
Nonlinearity correction enabled: false
Boxcar width: 5
Stray light correction enabled: false
XAxis mode: Wavelengths
Stop averaging: false
Number of Pixels in Spectrum: 3648
>>>>>Begin Spectral Data<<<<<
177.575	-139.8
177.794	428.66
178.014	-1266.49
178.233	-192.56
178.452	-36.47
178.672	-67.38
178.891	-7.52
179.11	319.09
179.33	175.36
179.549	248.25
179.768	317.2
179.987	198.12
180.207	192.11
180.426	225.72
180.645	863.63
180.864	-568.83
181.084	-109.24
181.303	-77.26
181.522	-544.25
181.741	-150.64
181.96	-33.91
182.179	9.88
182.398	6.16
182.618	-100.83
182.837	-87.9
183.056	-2039.04
183.275	1451.46
183.494	598.4
183.713	306.11
183.932	-1719.2
184.151	-842.97
184.37	1114.29
184.589	1737.97
184.808	450.9
185.027	1021.03
185.246	-139.87
185.465	-131.73
185.684	-148.05
185.903	-283.24
186.122	-221.06
186.341	-677.62
186.56	-1268.47
186.779	-495.76
186.998	11509.33
187.216	905.31
187.435	1090.86
187.654	291.11
187.873	415.48
188.092	457.63
188.311	-2368.64
188.53	611.19
188.748	1509.16
188.967	-713.75
189.186	226.72
189.405	797.81
189.623	4641.23
189.842	-150.15
190.061	-176.59
190.28	-73.72
190.498	-68.55
190.717	440.85
190.936	-537.52
191.154	534.1
191.373	376.3
191.592	-3335.85
191.81	1182.58
192.029	-868.74
192.248	-388.76
192.466	-335.45
192.685	-719.75
192.904	1298.27
193.122	592.75
193.341	298.69
193.559	341.96
193.778	264.5
193.996	286.11
194.215	1784.75
194.433	407.91
194.652	184.76
194.87	276.31
195.089	480.87
195.307	-3072.73
195.526	3220.18
195.744	-1170
195.963	505.56
196.181	573.79
196.399	914.81
196.618	514.58
196.836	418.24
197.055	536.8
197.273	216.58
197.491	158.08
197.71	128.69
197.928	119.11
198.146	140.03
198.365	214.91
198.583	178.55
198.801	124.52
199.019	138.76
199.238	135.69
199.456	109.76
199.674	88.18
199.892	101.8
200.111	-910.55
200.329	-157.01
200.547	-140.84
200.765	73.94
200.983	47.84
201.202	33.9
201.42	33.25
201.638	24.92
201.856	-7.15
202.074	-17.83
202.292	-111.14
202.51	-286.38
202.728	-248.76
202.946	-284.77
203.165	2773.6
203.383	1293.08
203.601	556.68
203.819	1815.26
204.037	-2748.29
204.255	-647.71
204.473	3652.68
204.691	-133.71
204.909	-329.94
205.127	-818.03
205.345	188.88
205.562	327.48
205.78	144.5
205.998	81.16
206.216	58.18
206.434	70.26
206.652	49.05
206.87	45.46
207.088	57.21
207.306	44.24
207.523	3.85
207.741	-67.42
207.959	-242.6
208.177	-11570
208.395	195.79
208.612	74.1
208.83	-76.88
209.048	-99.5
209.266	-259.15
209.483	-127.17
209.701	-69.06
209.919	-118.1
210.136	-119.66
210.354	-91.73
210.572	-28.95
210.79	4.97
211.007	-8.33
211.225	-12.61
211.442	14.6
211.66	28.21
211.878	45.45
212.095	-130.71
212.313	-116.52
212.53	-148.16
212.748	-181.88
212.966	-301.56
213.183	-431.39
213.401	-665.12
213.618	-400.83
213.836	-542.39
214.053	-941.09
214.271	1493.69
214.488	89.85
214.705	226.46
214.923	-113.88
215.14	1043.21
215.358	28.71
215.575	-4443.64
215.793	-98.65
216.01	-219.78
216.227	440.04
216.445	76.85
216.662	18.43
216.879	-244.36
217.097	64.4
217.314	22.19
217.531	275.11
217.749	207.55
217.966	-14.35
218.183	169.83
218.4	83.06
218.618	391.63
218.835	-779.14
219.052	372.09
219.269	197.19
219.487	178.78
219.704	213.05
219.921	158.62
220.138	271.46
220.355	248.5
220.572	316.14
220.79	253.22
221.007	152.4
221.224	152.48
221.441	179.78
221.658	391.65
221.875	520.95
222.092	802.44
222.309	794.37
222.526	2130.99
222.743	1938.98
222.96	558.57
223.177	-2934.29
223.394	-839.4
223.611	-557.35
223.828	-6250.68
224.045	2092.79
224.262	-878.28
224.479	-1300
224.696	-256.63
224.913	-308.47
225.13	-137.74
225.347	-109.65
225.564	-106.01
225.781	-77.28
225.997	-62.12
226.214	-82.25
226.431	-51.05
226.648	-63.37
226.865	-26.4
227.082	-16.18
227.298	-14.38
227.515	-11.78
227.732	-12.17
227.949	-6.59
228.165	-7.19
228.382	-1.81
228.599	8.51
228.816	11.65
229.032	17.38
229.249	11.6
229.466	5.3
229.682	9.45
229.899	4.54
230.116	8.91
230.332	-1.15
230.549	-9.14
230.765	-4.57
230.982	-2.14
231.199	-12.81
231.415	-34.66
231.632	-52.56
231.848	-43.37
232.065	-60.15
232.281	-37.25
232.498	-45.16
232.714	-31.21
232.931	-27.73
233.147	-70.28
233.364	-73.71
233.58	-65.83
233.797	-45.69
234.013	-26.6
234.23	-47.31
234.446	-48.02
234.662	-65.5
234.879	-83.39
235.095	-90.96
235.312	-69.59
235.528	-32.89
235.744	-29.06
235.961	-37.91
236.177	-35.88
236.393	-25.08
236.61	-10.65
236.826	-0.86
237.042	-13.77
237.258	-26.68
237.475	-8.26
237.691	-14.57
237.907	-21.85
238.123	-41.91
238.339	-39.73
238.556	-35.86
238.772	-51.9
238.988	-67.58
239.204	-84.73
239.42	-57.87
239.636	-22.81
239.853	-28.77
240.069	-27.92
240.285	-24.8
240.501	-13.36
240.717	-8.14
240.933	-6.8
241.149	-3.67
241.365	0.03
241.581	2.26
241.797	3.21
242.013	-2.31
242.229	1.43
242.445	2.24
242.661	5.4
242.877	6.71
243.093	7.81
243.309	4.87
243.525	5.1
243.741	7.42
243.957	10
244.173	8.35
244.388	10.42
244.604	15.54
244.82	20.83
245.036	17.85
245.252	13.05
245.468	7.15
245.683	7.05
245.899	7.91
246.115	4.9
246.331	5.37
246.547	7.02
246.762	6.95
246.978	6.38
247.194	3.33
247.409	3.29
247.625	2.63
247.841	6.72
248.057	8.19
248.272	8.28
248.488	7.36
248.703	7.36
248.919	8.37
249.135	7.33
249.35	0.93
249.566	-0.68
249.782	-5.01
249.997	3.43
250.213	0.22
250.428	3.11
250.644	-3.51
250.859	6.9
251.075	6.33
251.29	6.43
251.506	3.19
251.721	3.84
251.937	5.46
252.152	4.03
252.368	0.15
252.583	3.55
252.798	2.32
253.014	2.84
253.229	-2.92
253.445	-0.99
253.66	-8.08
253.875	-7.33
254.091	-14.67
254.306	-10.44
254.521	-11.4
254.737	-11.56
254.952	-20.48
255.167	-23.28
255.383	-21.59
255.598	-20.93
255.813	-22.36
256.028	-18.61
256.244	-20.94
256.459	-15.32
256.674	-17.81
256.889	-16.74
257.104	-14.34
257.32	-11.57
257.535	-10.79
257.75	-4.68
257.965	-4.22
258.18	-3.59
258.395	-3.77
258.61	-2.04
258.826	-1.82
259.041	-5.11
259.256	-1.73
259.471	-2.99
259.686	-0.77
259.901	-2.26
260.116	-3.48
260.331	-1.08
260.546	-0.72
260.761	-0.27
260.976	-2.34
261.191	-1.15
261.406	4.04
261.621	1.4
261.836	2.5
262.05	-1.9
262.265	1.11
262.48	-4.1
262.695	-7.99
262.91	-16.13
263.125	-11.25
263.34	-3.1
263.555	-2.27
263.769	-2.37
263.984	1.76
264.199	1.71
264.414	4.48
264.629	4.3
264.843	7.65
265.058	3.92
265.273	11.37
265.488	8.7
265.702	2.23
265.917	0.77
266.132	-2.19
266.346	-5.14
266.561	-3.42
266.776	-4.42
266.99	-5.45
267.205	-3.3
267.42	-2.31
267.634	-2.31
267.849	-3.43
268.063	-1.27
268.278	-1.89
268.492	-3.59
268.707	-4.22
268.922	-6.38
269.136	-5.57
269.351	-1.82
269.565	-3.96
269.78	-2.44
269.994	-2.14
270.209	-2.26
270.423	-3.35
270.637	-4.12
270.852	-2.42
271.066	-1.3
271.281	-1.02
271.495	0.26
271.709	-2.35
271.924	-1.27
272.138	-2.28
272.353	-6.37
272.567	-7.12
272.781	-4.94
272.996	-6.78
273.21	-4.1
273.424	-6.21
273.638	-5.07
273.853	-6.06
274.067	-4.85
274.281	-7.91
274.495	-8.26
274.71	-7.29
274.924	-6.52
275.138	-8.35
275.352	-4.65
275.566	-5.59
275.781	-3.13
275.995	-6.84
276.209	-6.23
276.423	-6.12
276.637	-3.98
276.851	-2.54
277.065	-2
277.279	-1.53
277.493	2.44
277.707	2.9
277.921	2.55
278.135	3.62
278.349	7.89
278.563	4.53
278.777	3.41
278.991	4.7
279.205	3.58
279.419	5.02
279.633	3.31
279.847	3.11
280.061	2.63
280.275	0.71
280.489	-1.97
280.703	-2.41
280.917	-2.13
281.131	-1.31
281.344	-2.51
281.558	-1.19
281.772	-4.72
281.986	-3.29
282.2	-4.2
282.414	-6.94
282.627	-6.38
282.841	-4.95
283.055	-6.11
283.269	-2.68
283.482	-3.68
283.696	-5.91
283.91	-3.46
284.123	0.34
284.337	-0.64
284.551	-1.24
284.764	-1.8
284.978	-0.11
285.192	0.5
285.405	-1.56
285.619	-3.17
285.833	-2.2
286.046	0.66
286.26	-3.24
286.473	-3.26
286.687	-2.59
286.9	-4.25
287.114	-1.89
287.327	-1.24
287.541	-1.59
287.754	0.9
287.968	1.36
288.181	0.95
288.395	-3.1
288.608	-2.96
288.822	-3.77
289.035	-4.76
289.248	-4.02
289.462	-5.88
289.675	-8.92
289.889	-6.92
290.102	-7.75
290.315	-8.82
290.529	-8.49
290.742	-3.56
290.955	-2.34
291.169	-4.74
291.382	-3.95
291.595	-3.62
291.808	-1.79
292.022	-0.28
292.235	-5.13
292.448	-3.11
292.661	0.33
292.875	1.4
293.088	-1.4
293.301	-1.07
293.514	0.01
293.727	-1.41
293.94	-0.62
294.153	-2.47
294.367	-1.8
294.58	-0.87
294.793	-2.06
295.006	-5.37
295.219	-5.23
295.432	-4.95
295.645	-6.15
295.858	-8.45
296.071	-7.11
296.284	-5.9
296.497	-2.91
296.71	-3.02
296.923	0
297.136	0.93
297.349	2.16
297.562	1.22
297.775	2.76
297.988	3.52
298.201	6.05
298.414	6.54
298.626	6.02
298.839	4.96
299.052	3.65
299.265	2.24
299.478	0.39
299.691	1.93
299.903	4.47
300.116	2.64
300.329	3.53
300.542	3.57
300.755	1.75
300.967	3.04
301.18	2.8
301.393	2.31
301.605	2.18
301.818	4.39
302.031	2.49
302.243	0.9
302.456	-1.4
302.669	-0.1
302.881	0.48
303.094	2.86
303.307	-0.13
303.519	1.07
303.732	4.72
303.944	3.55
304.157	0.53
304.37	1.69
304.582	2.56
304.795	7.47
305.007	4
305.22	5.41
305.432	3.75
305.645	5.08
305.857	6.37
306.069	5.3
306.282	6.08
306.494	7.96
306.707	8.82
306.919	6.99
307.132	5.11
307.344	7.86
307.556	7.52
307.769	7.55
307.981	7.99
308.193	5.54
308.406	5.38
308.618	4.45
308.83	4.6
309.043	5.81
309.255	7.58
309.467	7.97
309.679	6.41
309.892	6.92
310.104	7.2
310.316	6.51
310.528	6.93
310.74	6.17
310.953	6.58
311.165	8.43
311.377	5.95
311.589	4.76
311.801	2.9
312.013	6.22
312.225	4.59
312.437	3.98
312.649	4.63
312.862	4.75
313.074	4.65
313.286	4.37
313.498	0.17
313.71	0.44
313.922	0.61
314.134	1.68
314.346	-1.2
314.558	-0.98
314.77	-1.06
314.982	-3.33
315.193	-0.66
315.405	0.58
315.617	0.39
315.829	1.98
316.041	0.61
316.253	2.15
316.465	-0.86
316.677	0.47
316.888	-0.21
317.1	1.44
317.312	5.25
317.524	3.49
317.736	2.19
317.947	1.92
318.159	3.02
318.371	3.7
318.583	1.5
318.794	6.08
319.006	5.58
319.218	9.98
319.43	10.2
319.641	6.92
319.853	5.53
320.064	7.1
320.276	9.88
320.488	8.5
320.699	9.83
320.911	9.36
321.123	7.55
321.334	6.72
321.546	4.65
321.757	3.66
321.969	4.72
322.18	5.09
322.392	3.24
322.603	2.55
322.815	2.61
323.026	2.04
323.238	3.62
323.449	4.01
323.661	4.67
323.872	0.67
324.083	0.12
324.295	0.96
324.506	0.74
324.718	2.27
324.929	3.54
325.14	5.97
325.352	5.25
325.563	7.32
325.774	8.88
325.986	9.65
326.197	12.94
326.408	14.61
326.62	15.75
326.831	18.15
327.042	17.76
327.253	17.33
327.464	16.34
327.676	19.52
327.887	19.49
328.098	17.21
328.309	15.76
328.52	15.71
328.732	14.82
328.943	13.88
329.154	11.86
329.365	13.41
329.576	13.78
329.787	16.33
329.998	14.97
330.209	12.27
330.42	14.58
330.631	15.65
330.842	16.59
331.053	15.8
331.264	15.55
331.475	17.56
331.686	14.23
331.897	13.68
332.108	10.76
332.319	11.31
332.53	14.67
332.741	13.89
332.952	12.53
333.163	12.28
333.374	14.06
333.585	15.55
333.795	13.5
334.006	13.75
334.217	14.37
334.428	13.87
334.639	11.73
334.849	9.26
335.06	9.45
335.271	10.48
335.482	9.16
335.692	8.13
335.903	6.38
336.114	8.17
336.325	11.62
336.535	9.47
336.746	11
336.957	12.3
337.167	13.83
337.378	12.4
337.589	12.93
337.799	14.94
338.01	14.7
338.22	15.86
338.431	14.03
338.642	13.2
338.852	14.69
339.063	15.45
339.273	15.42
339.484	15.16
339.694	17.22
339.905	15.63
340.115	13.77
340.326	15.57
340.536	15.43
340.746	17.23
340.957	16.2
341.167	15.74
341.378	15.75
341.588	15.17
341.799	15.06
342.009	14.11
342.219	15.34
342.43	15.94
342.64	14.04
342.85	14.78
343.061	14.88
343.271	15.58
343.481	14.69
343.691	14.44
343.902	15.08
344.112	14.51
344.322	14.14
344.532	14.03
344.743	12.74
344.953	12.84
345.163	11.76
345.373	9.94
345.583	9.36
345.793	9.7
346.004	8.37
346.214	7.39
346.424	8.55
346.634	9.67
346.844	9.49
347.054	10.51
347.264	11.61
347.474	10.72
347.684	12.82
347.894	15.03
348.104	15.56
348.314	16.45
348.524	17.64
348.734	15.43
348.944	15.13
349.154	15.75
349.364	16.59
349.574	15.05
349.784	14.79
349.994	14.96
350.204	13.2
350.413	14.97
350.623	14.47
350.833	13.58
351.043	13.98
351.253	14.02
351.463	12.98
351.672	11.43
351.882	14.17
352.092	15.49
352.302	14.98
352.511	16.74
352.721	14.83
352.931	15.37
353.141	15.88
353.35	15.33
353.56	15.29
353.77	15.63
353.979	15.03
354.189	13.51
354.399	13.8
354.608	12.33
354.818	10.12
355.027	9.84
355.237	10.23
355.447	10.22
355.656	11.92
355.866	11.86
356.075	12.7
356.285	13.38
356.494	13.35
356.704	14.67
356.913	15.34
357.123	15.07
357.332	14.69
357.542	13.31
357.751	13.72
357.96	13.27
358.17	13.55
358.379	12.52
358.589	13.11
358.798	12.96
359.007	11.81
359.217	11.39
359.426	13.3
359.635	13.22
359.845	14.32
360.054	13.85
360.263	14.89
360.472	15.2
360.682	16.16
360.891	15.52
361.1	15.16
361.309	15.08
361.519	15.39
361.728	14.04
361.937	14.65
362.146	14.93
362.355	15.79
362.564	15.27
362.774	14.56
362.983	16.14
363.192	16.84
363.401	17.83
363.61	17.35
363.819	17.78
364.028	17.23
364.237	17.95
364.446	16.88
364.655	16.47
364.864	15.54
365.073	14.15
365.282	11.94
365.491	11.28
365.7	11.07
365.909	11.54
366.118	11.81
366.327	13.9
366.536	12.88
366.745	12.49
366.954	10.62
367.162	12.36
367.371	14.52
367.58	13.96
367.789	13.96
367.998	13.9
368.207	14.07
368.415	12.31
368.624	11.39
368.833	11.01
369.042	12.58
369.25	14.81
369.459	14.17
369.668	13.04
369.877	12.75
370.085	12.72
370.294	12.33
370.503	12.78
370.711	13.91
370.92	12.57
371.129	13.78
371.337	13.17
371.546	10.69
371.754	9.71
371.963	9.27
372.171	9.99
372.38	10.13
372.589	11.52
372.797	9.98
373.006	9.14
373.214	9.78
373.423	10
373.631	10.08
373.84	11.89
374.048	12.36
374.256	13.05
374.465	12.65
374.673	13.1
374.882	12.08
375.09	13.8
375.298	13.42
375.507	14.19
375.715	13.96
375.923	13.26
376.132	14.59
376.34	13.83
376.548	13.84
376.757	14.64
376.965	14.72
377.173	15.87
377.381	14.34
377.59	14.14
377.798	13.87
378.006	14.21
378.214	15.51
378.423	15.73
378.631	16.86
378.839	18.08
379.047	16.61
379.255	16.48
379.463	16.43
379.671	16.87
379.879	17.29
380.088	19.32
380.296	18.83
380.504	18.04
380.712	17.44
380.92	17.73
381.128	15.55
381.336	16.82
381.544	17.56
381.752	16.54
381.96	16.07
382.168	16.82
382.376	14.5
382.584	14.82
382.791	14.91
382.999	15.36
383.207	14.56
383.415	16.18
383.623	14.99
383.831	13.63
384.039	13.24
384.247	15.74
384.454	15.07
384.662	16.19
384.87	16.52
385.078	16.22
385.285	15.11
385.493	15.14
385.701	13.58
385.909	13.22
386.116	14.01
386.324	14.75
386.532	12.98
386.739	14.03
386.947	13.68
387.155	12.45
387.362	13.56
387.57	14.2
387.778	14.27
387.985	14.21
388.193	14.71
388.4	14.39
388.608	13.4
388.816	14.17
389.023	13.68
389.231	14.14
389.438	13.97
389.646	13.81
389.853	12.44
390.061	12.04
390.268	12.07
390.475	12.73
390.683	12.11
390.89	12.89
391.098	12.71
391.305	12.41
391.512	12.16
391.72	12.77
391.927	12.13
392.135	12.84
392.342	12.87
392.549	13.98
392.756	14.48
392.964	14.93
393.171	15.01
393.378	14.92
393.586	15.25
393.793	14.16
394	13.27
394.207	13.3
394.414	12.56
394.622	12.56
394.829	11.97
395.036	11.18
395.243	10.86
395.45	11
395.657	10.61
395.864	10.07
396.072	10.55
396.279	11.87
396.486	11.57
396.693	11.7
396.9	11.24
397.107	10.86
397.314	10.38
397.521	11.6
397.728	11.05
397.935	11.27
398.142	11.01
398.349	11.35
398.556	11.09
398.763	11.31
398.97	12.17
399.177	13.6
399.383	14.74
399.59	15.03
399.797	14.63
400.004	14.52
400.211	14.48
400.418	14.43
400.625	14.6
400.831	13.96
401.038	13.98
401.245	14.64
401.452	14.66
401.658	14.57
401.865	15.32
402.072	14.8
402.279	15.29
402.485	15.18
402.692	16.82
402.899	16.07
403.105	16.49
403.312	16.65
403.519	15.78
403.725	14.81
403.932	15.39
404.138	14.81
404.345	13.77
404.552	13.5
404.758	13.77
404.965	12.79
405.171	14.35
405.378	14.13
405.584	13.37
405.791	13.61
405.997	13.5
406.204	13.68
406.41	13.53
406.617	13.67
406.823	13.53
407.029	13.6
407.236	14.29
407.442	13.08
407.649	13.8
407.855	14.84
408.061	14.37
408.268	14.75
408.474	14.37
408.68	14.8
408.887	15.31
409.093	16.17
409.299	16.83
409.505	15.63
409.712	15.83
409.918	15.16
410.124	15.18
410.33	15.8
410.537	15.26
410.743	15.3
410.949	14.95
411.155	16.34
411.361	15.35
411.567	14.56
411.773	14.58
411.98	14.3
412.186	14.66
412.392	14.17
412.598	13.55
412.804	14.65
413.01	13.42
413.216	14.45
413.422	13.81
413.628	14.02
413.834	13.43
414.04	13.44
414.246	13.3
414.452	12.82
414.658	13.14
414.864	13.79
415.07	13.88
415.275	14
415.481	13.56
415.687	12.6
415.893	12.36
416.099	11.79
416.305	12.62
416.511	13.02
416.716	12.73
416.922	13.77
417.128	13.14
417.334	13.35
417.539	13.78
417.745	13.51
417.951	14.18
418.157	14.29
418.362	14.82
418.568	14.98
418.774	14.78
418.979	14.73
419.185	14.29
419.391	14.53
419.596	13.67
419.802	13.54
420.008	13.72
420.213	13.66
420.419	13.55
420.624	13.59
420.83	13.15
421.035	13
421.241	13.56
421.446	13.66
421.652	13.92
421.857	13.71
422.063	14.02
422.268	14.05
422.474	14.1
422.679	14.91
422.885	15.13
423.09	15.41
423.295	15.65
423.501	15.67
423.706	15.36
423.911	15.14
424.117	16.18
424.322	16.23
424.527	16.27
424.733	16.15
424.938	15.88
425.143	16.24
425.349	15.9
425.554	15.83
425.759	15.85
425.964	16.21
426.169	16.02
426.375	15.49
426.58	15.1
426.785	15.18
426.99	15.26
427.195	14.94
427.4	14.23
427.605	14.39
427.811	14.57
428.016	14.43
428.221	13.41
428.426	13.69
428.631	13.64
428.836	13.68
429.041	13.26
429.246	13.13
429.451	12.98
429.656	12.79
429.861	12.46
430.066	12.44
430.271	12.24
430.476	12.57
430.681	13.29
430.886	13.72
431.09	14.44
431.295	14.73
431.5	15.03
431.705	15.12
431.91	15.65
432.115	15.82
432.32	15.59
432.524	15.32
432.729	15.62
432.934	15.03
433.139	15.11
433.343	14.14
433.548	14.04
433.753	13.67
433.958	14.08
434.162	13.78
434.367	14.63
434.572	14.83
434.776	15
434.981	14.66
435.186	14.57
435.39	14.18
435.595	14.67
435.799	14.92
436.004	15.01
436.209	14.53
436.413	14.26
436.618	14.06
436.822	14.52
437.027	14.85
437.231	15.52
437.436	15.66
437.64	15.81
437.845	16.02
438.049	15.86
438.253	15.95
438.458	15.72
438.662	16.26
438.867	15.75
439.071	15.27
439.275	15.26
439.48	15.46
439.684	15.61
439.888	15.38
440.093	14.71
440.297	14.67
440.501	14.64
440.706	14.78
440.91	15.03
441.114	15.25
441.318	15.37
441.523	15.38
441.727	14.63
441.931	14.78
442.135	15.63
442.339	15.66
442.543	15.41
442.748	15.61
442.952	15.02
443.156	14.65
443.36	14.71
443.564	14.41
443.768	14.81
443.972	14.85
444.176	14.27
444.38	13.47
444.584	14.03
444.788	14.61
444.992	14.64
445.196	15.1
445.4	14.64
445.604	15.12
445.808	15.02
446.012	14.82
446.216	15.19
446.42	15.64
446.624	15.94
446.828	16.05
447.032	15.46
447.235	15.53
447.439	15.49
447.643	15.63
447.847	14.99
448.051	15.13
448.254	14.55
448.458	13.95
448.662	13.51
448.866	13.1
449.069	12.59
449.273	13.41
449.477	12.91
449.681	13.05
449.884	13.4
450.088	13.2
450.292	13.71
450.495	14.23
450.699	14.28
450.902	13.56
451.106	13.57
451.31	13.97
451.513	13.16
451.717	13.34
451.92	12.92
452.124	12.37
452.327	12.34
452.531	11.96
452.734	11.97
452.938	12.1
453.141	13.01
453.345	13.33
453.548	13.43
453.752	13.69
453.955	13.85
454.158	13.99
454.362	14.06
454.565	14.7
454.769	14.92
454.972	14.86
455.175	15.1
455.379	14.45
455.582	14.26
455.785	14.36
455.988	14.63
456.192	14.89
456.395	14.33
456.598	14.33
456.801	13.59
457.005	13.89
457.208	13.93
457.411	13.4
457.614	13.6
457.817	13.84
458.021	13.68
458.224	13.41
458.427	12.82
458.63	13.55
458.833	13.65
459.036	14.41
459.239	14
459.442	14.23
459.645	14.66
459.848	14.84
460.051	14.66
460.254	14.65
460.457	14.77
460.66	15.32
460.863	15.13
461.066	15.37
461.269	14.97
461.472	15.32
461.675	14.82
461.878	14.77
462.081	14.79
462.284	14.33
462.486	14.05
462.689	13.72
462.892	13.84
463.095	14.23
463.298	14.71
463.5	14.18
463.703	14.01
463.906	14.28
464.109	14.18
464.311	13.58
464.514	14.03
464.717	14.1
464.92	14.32
465.122	14.24
465.325	13.6
465.528	13.11
465.73	13.13
465.933	13.13
466.135	13.39
466.338	13.57
466.541	14.36
466.743	14.57
466.946	14.32
467.148	14.87
467.351	14.67
467.553	15.41
467.756	15.26
467.958	15.85
468.161	15.63
468.363	15.44
468.566	15.64
468.768	15.94
468.971	15.22
469.173	15.63
469.375	14.98
469.578	14.6
469.78	13.95
469.983	14.1
470.185	14.26
470.387	14.43
470.59	14.58
470.792	13.54
470.994	12.98
471.196	13.03
471.399	13.14
471.601	13.8
471.803	14.47
472.005	15
472.208	14.72
472.41	14.11
472.612	14.81
472.814	14.62
473.016	14.78
473.218	14.84
473.421	14.78
473.623	14.71
473.825	13.95
474.027	14.06
474.229	14.34
474.431	14.72
474.633	14.87
474.835	14.19
475.037	14.16
475.239	14.7
475.441	14.53
475.643	15.04
475.845	15.2
476.047	15.76
476.249	15.54
476.451	15.01
476.653	15.01
476.855	15.3
477.057	15.48
477.258	15.77
477.46	15.76
477.662	16.21
477.864	16.17
478.066	16.07
478.268	16.33
478.469	16.16
478.671	16.15
478.873	16.19
479.075	15.91
479.276	15.98
479.478	16.01
479.68	15.95
479.882	15.52
480.083	15.35
480.285	15.51
480.487	15.25
480.688	15.33
480.89	15.33
481.091	15.09
481.293	15.25
481.495	15.18
481.696	15.04
481.898	15.04
482.099	15
482.301	15.09
482.502	14.95
482.704	14.77
482.905	14.7
483.107	14.75
483.308	14.94
483.51	14.92
483.711	14.83
483.913	14.98
484.114	14.84
484.315	14.94
484.517	14.86
484.718	15.03
484.92	15.25
485.121	15.57
485.322	15.63
485.524	15.45
485.725	15.41
485.926	15.53
486.127	15.51
486.329	15.59
486.53	15.64
486.731	15.64
486.932	15.4
487.134	15.19
487.335	14.91
487.536	14.83
487.737	14.87
487.938	14.83
488.139	14.79
488.341	14.71
488.542	14.8
488.743	14.77
488.944	14.91
489.145	15.01
489.346	15.14
489.547	15.22
489.748	15.21
489.949	15.33
490.15	15.48
490.351	15.55
490.552	15.5
490.753	15.44
490.954	15.41
491.155	15.52
491.356	15.52
491.557	15.68
491.758	15.77
491.959	15.77
492.159	15.5
492.36	15.72
492.561	15.96
492.762	16.01
492.963	16.01
493.164	15.8
493.364	15.73
493.565	15.68
493.766	15.78
493.967	15.39
494.167	15.53
494.368	16.08
494.569	15.72
494.769	14.96
494.97	14.79
495.171	15.29
495.371	15.49
495.572	15
495.773	15.16
495.973	14.81
496.174	15.18
496.375	15.03
496.575	14.86
496.776	14.54
496.976	14.95
497.177	14.91
497.377	14.52
497.578	14.68
497.778	15.21
497.979	15.39
498.179	15.36
498.38	15.18
498.58	15.17
498.78	15.45
498.981	16.01
499.181	16.12
499.382	16.21
499.582	16.47
499.782	16.13
499.983	16.13
500.183	16.2
500.383	16.53
500.584	16.6
500.784	16.81
500.984	16.62
501.184	16.37
501.385	16.34
501.585	16.49
501.785	16.7
501.985	16.88
502.185	16.58
502.386	16.54
502.586	16.58
502.786	16.53
502.986	16.56
503.186	16.6
503.386	16.36
503.586	16.33
503.786	16.1
503.987	15.86
504.187	15.96
504.387	16.15
504.587	15.5
504.787	14.92
504.987	15.43
505.187	15.59
505.387	14.89
505.587	15.03
505.786	15.04
505.986	15.34
506.186	15.47
506.386	15.78
506.586	15.73
506.786	16.21
506.986	16.4
507.186	16.32
507.386	16.45
507.585	16.76
507.785	17.25
507.985	17.42
508.185	17.31
508.384	17.61
508.584	17.65
508.784	18.27
508.984	18.26
509.183	18.28
509.383	18.07
509.583	18.15
509.782	18.61
509.982	18.34
510.182	18.11
510.381	18.44
510.581	18.49
510.781	18.37
510.98	18.02
511.18	18.45
511.379	18.35
511.579	18.19
511.778	18.24
511.978	18.39
512.177	18.47
512.377	18.46
512.576	18.12
512.776	17.85
512.975	17.76
513.175	17.8
513.374	17.52
513.573	18.22
513.773	19.03
513.972	18.98
514.172	19.08
514.371	19.18
514.57	19.33
514.77	19.37
514.969	19.67
515.168	19.54
515.367	19.3
515.567	19.56
515.766	19.07
515.965	18.58
516.164	18.7
516.364	18.59
516.563	18.51
516.762	18.71
516.961	19.05
517.16	18.87
517.359	19.42
517.559	19.38
517.758	19.07
517.957	19.16
518.156	19.47
518.355	19.31
518.554	19.13
518.753	19.02
518.952	18.75
519.151	18.77
519.35	18.75
519.549	18.37
519.748	19.03
519.947	19.25
520.146	19.3
520.345	19.51
520.544	19.85
520.743	20.12
520.942	20.25
521.141	20.81
521.339	20.94
521.538	21.38
521.737	22.05
521.936	21.63
522.135	21.67
522.333	21.79
522.532	21.39
522.731	21.11
522.93	21.06
523.129	21.56
523.327	21.48
523.526	21.36
523.725	21.12
523.923	20.91
524.122	21.28
524.321	21.44
524.519	21.32
524.718	21.4
524.917	21.65
525.115	22.06
525.314	22.07
525.512	22.09
525.711	22.23
525.909	22.4
526.108	22.75
526.306	22.62
526.505	22.98
526.703	23.31
526.902	23.51
527.1	23.59
527.299	23.39
527.497	23.32
527.696	23.58
527.894	23.54
528.092	23.58
528.291	23.58
528.489	23.62
528.688	23.27
528.886	23.33
529.084	23.3
529.283	23.42
529.481	23.78
529.679	23.83
529.877	23.69
530.076	23.9
530.274	24.17
530.472	24.32
530.67	24.69
530.869	25.24
531.067	25.07
531.265	25.2
531.463	25.2
531.661	25.06
531.859	25.42
532.057	25.5
532.255	25.66
532.454	25.63
532.652	25.35
532.85	25.12
533.048	25.17
533.246	25.45
533.444	25.28
533.642	25.27
533.84	25.56
534.038	25.58
534.236	25.78
534.434	25.86
534.632	25.84
534.83	26.25
535.027	26.91
535.225	27.17
535.423	27.2
535.621	27.46
535.819	27.68
536.017	27.39
536.215	27.5
536.412	27.45
536.61	27.51
536.808	27.52
537.006	27.47
537.203	27.31
537.401	27.22
537.599	27.49
537.797	27.74
537.994	27.55
538.192	28.12
538.39	28
538.587	28.26
538.785	28.12
538.983	28.52
539.18	28.63
539.378	28.47
539.575	28.39
539.773	28.42
539.97	28.34
540.168	28.67
540.366	28.42
540.563	28.4
540.761	28.51
540.958	28.6
541.155	28.68
541.353	28.86
541.55	29.04
541.748	28.99
541.945	29.2
542.143	29.54
542.34	29.56
542.537	29.66
542.735	29.87
542.932	29.67
543.129	29.98
543.327	30.01
543.524	29.99
543.721	30.09
543.919	30.23
544.116	30
544.313	29.88
544.51	29.88
544.708	30.37
544.905	30.51
545.102	31.06
545.299	30.94
545.496	30.59
545.693	30.99
545.891	31.09
546.088	31.52
546.285	31.71
546.482	32.01
546.679	32.08
546.876	31.91
547.073	32.1
547.27	32.19
547.467	32.06
547.664	32.51
547.861	32.17
548.058	31.9
548.255	32.41
548.452	32.55
548.649	32.3
548.846	32.28
549.043	32.21
549.24	32.53
549.437	32.36
549.633	32.64
549.83	32.89
550.027	32.5
550.224	32.87
550.421	32.3
550.618	32.11
550.814	32.28
551.011	32.23
551.208	32.27
551.405	31.97
551.601	32.29
551.798	32.79
551.995	33.04
552.191	33.43
552.388	33.01
552.585	32.85
552.781	32.74
552.978	33
553.175	33.3
553.371	33.58
553.568	33.71
553.764	33.62
553.961	33.54
554.157	32.93
554.354	32.82
554.55	33.54
554.747	34.18
554.943	34.58
555.14	34.37
555.336	34.87
555.533	34.53
555.729	34.08
555.926	33.98
556.122	33.59
556.318	33.63
556.515	33.9
556.711	33.91
556.907	33.16
557.104	33.26
557.3	33.65
557.496	33
557.693	32.91
557.889	33.75
558.085	33.56
558.281	34.36
558.478	34.8
558.674	34.95
558.87	34.84
559.066	35.86
559.262	36.18
559.459	36.5
559.655	36.98
559.851	37.24
560.047	37.55
560.243	37.72
560.439	37.47
560.635	36.76
560.831	37.17
561.027	37.2
561.223	36.86
561.419	36.86
561.615	36.11
561.811	36.28
562.007	36.23
562.203	36.01
562.399	36.41
562.595	36.51
562.791	37.48
562.987	37.27
563.183	37.47
563.379	37.5
563.575	37.31
563.771	37.59
563.966	37.78
564.162	38.08
564.358	37.62
564.554	37.05
564.75	37.26
564.945	37.73
565.141	38.04
565.337	38.02
565.533	38.24
565.728	38.4
565.924	38.43
566.12	38.42
566.315	38.82
566.511	39.67
566.707	40.53
566.902	40.15
567.098	39.72
567.293	39.24
567.489	39.28
567.684	39.2
567.88	38.9
568.076	39.08
568.271	39.09
568.467	38.62
568.662	38.15
568.858	38.04
569.053	38.55
569.248	38.58
569.444	38.94
569.639	38.83
569.835	38.86
570.03	39.5
570.225	39.37
570.421	39.61
570.616	39.93
570.812	40.33
571.007	40.62
571.202	40.16
571.397	40.11
571.593	40.24
571.788	40.88
571.983	41.57
572.178	41.67
572.374	42.35
572.569	42.24
572.764	42.26
572.959	42.34
573.154	41.99
573.35	42.3
573.545	42.7
573.74	42.84
573.935	42.59
574.13	41.81
574.325	41.64
574.52	40.79
574.715	40.6
574.91	40.8
575.105	40.9
575.3	41.12
575.495	41.84
575.69	41.69
575.885	41.46
576.08	41.65
576.275	41.94
576.47	41.99
576.665	43.08
576.86	43.18
577.055	43.34
577.25	43.36
577.444	43.84
577.639	42.82
577.834	42.84
578.029	43.45
578.224	43.74
578.418	44.14
578.613	44.43
578.808	44.26
579.003	45.06
579.197	45.29
579.392	45.06
579.587	44.35
579.781	44.79
579.976	44.85
580.171	44.98
580.365	44.42
580.56	44.38
580.755	44.14
580.949	43.62
581.144	43.5
581.338	43.2
581.533	42.85
581.727	43.55
581.922	43.94
582.116	43.96
582.311	43.85
582.505	43.9
582.7	43.88
582.894	44.44
583.089	44.16
583.283	44.08
583.478	44.06
583.672	44.33
583.866	43.68
584.061	43.7
584.255	44.6
584.449	44.27
584.644	44.28
584.838	44.3
585.032	43.58
585.226	44.45
585.421	44.62
585.615	44.99
585.809	45.5
586.003	46.31
586.198	46.21
586.392	45.44
586.586	45.6
586.78	45.84
586.974	46.03
587.168	46.47
587.363	46.33
587.557	45.93
587.751	45.72
587.945	44.88
588.139	44.59
588.333	44.68
588.527	44.54
588.721	44.47
588.915	44.12
589.109	44.27
589.303	44.9
589.497	44.66
589.691	44.9
589.885	44.64
590.079	46.02
590.273	46.06
590.466	46.32
590.66	46.77
590.854	47.35
591.048	47.91
591.242	47.29
591.436	46.57
591.629	47.12
591.823	47.2
592.017	47.58
592.211	46.84
592.404	46.41
592.598	46.03
592.792	45.56
592.986	45.12
593.179	45.36
593.373	45.66
593.567	46
593.76	45.65
593.954	45.4
594.147	45.32
594.341	45.44
594.535	45.95
594.728	45.79
594.922	46.84
595.115	46.9
595.309	47.15
595.502	47.3
595.696	47.54
595.889	47.68
596.083	47.6
596.276	47.97
596.47	47.81
596.663	47.84
596.856	48.76
597.05	48.84
597.243	48.89
597.437	48.53
597.63	48.61
597.823	47.86
598.017	47.43
598.21	48.25
598.403	48.45
598.596	48.88
598.79	48.49
598.983	48.12
599.176	47.6
599.369	47.59
599.563	47.25
599.756	46.58
599.949	47.33
600.142	48.28
600.335	47.86
600.528	47.76
600.722	47.4
600.915	47.76
601.108	47.43
601.301	46.93
601.494	46.78
601.687	47.15
601.88	47.48
602.073	46.78
602.266	46.83
602.459	47.03
602.652	46.91
602.845	47.18
603.038	47.45
603.231	47
603.424	48.08
603.617	48.02
603.809	48.14
604.002	48.57
604.195	49.24
604.388	49.23
604.581	48.42
604.774	48.15
604.966	48.69
605.159	48.28
605.352	49.39
605.545	48.41
605.737	48.67
605.93	48.48
606.123	47.95
606.316	47.47
606.508	47.4
606.701	48.09
606.894	48.17
607.086	47.56
607.279	47.61
607.471	47.1
607.664	47.15
607.857	47.56
608.049	47.39
608.242	47.96
608.434	47.64
608.627	47.55
608.819	47.76
609.012	47.43
609.204	46.96
609.397	47.35
609.589	47.15
609.782	46.43
609.974	46.3
610.166	45.95
610.359	45.61
610.551	46.03
610.743	45.24
610.936	45.26
611.128	45.98
611.32	46.94
611.513	46.19
611.705	46.37
611.897	47.13
612.09	47.73
612.282	48.62
612.474	49.41
612.666	49
612.858	50.83
613.051	50.41
613.243	50.9
613.435	50.36
613.627	51.11
613.819	51.5
614.011	51.82
614.203	50.42
614.395	50.53
614.588	49.89
614.78	50.68
614.972	49.56
615.164	49.99
615.356	49.76
615.548	50.69
615.74	51.14
615.932	50.65
616.124	50.95
616.315	51.47
616.507	50.94
616.699	50.33
616.891	49.75
617.083	49.44
617.275	48.85
617.467	48.66
617.659	47
617.85	46.83
618.042	47.76
618.234	47.2
618.426	47.56
618.618	47.58
618.809	48.01
619.001	49.04
619.193	49.22
619.384	48.85
619.576	48.2
619.768	48.87
619.959	48.31
620.151	48.2
620.343	48.18
620.534	48.01
620.726	48.82
620.917	49.12
621.109	48.61
621.301	49.41
621.492	50.39
621.684	50.86
621.875	50.78
622.067	51.47
622.258	51.28
622.45	51.62
622.641	52.15
622.832	51.06
623.024	51.4
623.215	51.21
623.407	50.65
623.598	50.71
623.789	50.36
623.981	50.55
624.172	49.74
624.363	49.4
624.555	48.93
624.746	48.21
624.937	48.91
625.129	49.23
625.32	50.15
625.511	50.18
625.702	50.29
625.893	50.28
626.085	50.84
626.276	51.65
626.467	52.11
626.658	52.71
626.849	53.21
627.04	52.57
627.231	51.83
627.422	50.99
627.614	51.18
627.805	51.27
627.996	51.51
628.187	50.98
628.378	49.93
628.569	49.53
628.76	49.11
628.951	48.94
629.142	50.34
629.332	50.86
629.523	50.87
629.714	51.16
629.905	49.95
630.096	50.68
630.287	50.49
630.478	51.4
630.669	51.02
630.859	51.06
631.05	50.54
631.241	49.67
631.432	49.52
631.623	49.85
631.813	49.46
632.004	50.05
632.195	48.87
632.385	48.77
632.576	47.69
632.767	48.09
632.957	48.35
633.148	49.34
633.339	49.9
633.529	50.03
633.72	50.05
633.91	50.34
634.101	51.46
634.292	51.82
634.482	52.48
634.673	52.66
634.863	52.6
635.054	52.26
635.244	51.8
635.435	51.23
635.625	51.08
635.815	50.82
636.006	49.74
636.196	49.28
636.387	50.15
636.577	50.58
636.767	51.82
636.958	51.74
637.148	51.78
637.338	51.34
637.529	51.83
637.719	51.64
637.909	51.47
638.099	53.06
638.29	52.69
638.48	51.59
638.67	50.85
638.86	50.56
639.05	50.62
639.241	51.53
639.431	52.02
639.621	50.81
639.811	49.98
640.001	49.36
640.191	48.94
640.381	48.7
640.571	48.97
640.761	49.44
640.951	49.35
641.141	49.03
641.331	47.53
641.521	46.9
641.711	48.66
641.901	49.88
642.091	51.2
642.281	51.44
642.471	51.14
642.661	51.02
642.851	51.46
643.041	51.61
643.231	51.9
643.42	53.25
643.61	54.9
643.8	53.09
643.99	52.4
644.18	51.75
644.369	51.97
644.559	52.17
644.749	53.01
644.939	51.58
645.128	51.22
645.318	51.39
645.508	52.69
645.697	51.91
645.887	52.85
646.076	53.32
646.266	54.37
646.456	54.39
646.645	55.2
646.835	55.78
647.024	57.07
647.214	56.94
647.403	56.72
647.593	55.52
647.782	55.19
647.972	54.56
648.161	54.1
648.351	52.83
648.54	52.97
648.73	52.43
648.919	51.34
649.108	49.5
649.298	49.91
649.487	50.95
649.677	50.72
649.866	50.5
650.055	50.56
650.244	50.54
650.434	51.27
650.623	50.81
650.812	50.82
651.002	50.98
651.191	51.67
651.38	51.64
651.569	50.68
651.758	50.43
651.947	50.75
652.137	50.7
652.326	51.27
652.515	51.95
652.704	51.25
652.893	50.81
653.082	49.96
653.271	50.05
653.46	50.28
653.649	50.47
653.838	51.12
654.027	51.17
654.216	52.05
654.405	53.12
654.594	52.08
654.783	53.37
654.972	54.07
655.161	55.73
655.35	56.24
655.539	55.45
655.728	54.97
655.916	54.41
656.105	53.93
656.294	53.12
656.483	51.21
656.672	51.5
656.86	49.95
657.049	49.85
657.238	49.14
657.427	48.86
657.615	49.43
657.804	50.3
657.993	50.8
658.181	50.86
658.37	50.9
658.559	51.53
658.747	51.45
658.936	51.01
659.125	50.67
659.313	50.34
659.502	51.18
659.69	50.54
659.879	50
660.067	49.04
660.256	50.2
660.444	50.31
660.633	49.91
660.821	50.45
661.01	51.29
661.198	51.46
661.387	52.49
661.575	52.57
661.763	53.07
661.952	52.71
662.14	53.24
662.328	51.9
662.517	52.22
662.705	52.74
662.893	52.62
663.082	53.36
663.27	53.82
663.458	52.66
663.646	51.48
663.834	52.71
664.023	53.93
664.211	53.23
664.399	53.19
664.587	53.02
664.775	54.23
664.963	53.25
665.152	53.4
665.34	53.51
665.528	53.42
665.716	53.95
665.904	52.74
666.092	52.14
666.28	54.13
666.468	55.34
666.656	55.66
666.844	54.62
667.032	54.12
667.22	52.72
667.408	52.74
667.596	52.33
667.784	52.64
667.971	51.84
668.159	52.55
668.347	51.9
668.535	50.43
668.723	49.85
668.911	49.86
669.098	51.97
669.286	53.44
669.474	54.6
669.662	54.95
669.849	54.36
670.037	55.64
670.225	55.18
670.413	54.46
670.6	55.79
670.788	56.74
670.976	55.89
671.163	55.66
671.351	56.42
671.538	55.36
671.726	55.73
671.913	56.8
672.101	55.61
672.289	55.26
672.476	55
672.664	54.03
672.851	52.61
673.039	53.7
673.226	53.49
673.413	52.16
673.601	50.2
673.788	51.39
673.976	51.21
674.163	52.42
674.35	53.52
674.538	54.81
674.725	55.19
674.912	55.66
675.1	55.58
675.287	54.26
675.474	54.05
675.662	55.04
675.849	53.26
676.036	51.94
676.223	51.44
676.411	50.15
676.598	48.09
676.785	48.25
676.972	47.77
677.159	47.6
677.346	49.11
677.533	50.06
677.721	51.85
677.908	52.42
678.095	52.7
678.282	53.46
678.469	52.17
678.656	54.16
678.843	53.74
679.03	54.57
679.217	53.98
679.404	54.09
679.591	53.78
679.778	51.89
679.964	52.73
680.151	53.93
680.338	52.32
680.525	54.4
680.712	53.41
680.899	53.37
681.086	52.94
681.272	53.83
681.459	54
681.646	53.48
681.833	53.44
682.02	52.67
682.206	52.56
682.393	55.52
682.58	54.59
682.766	55.87
682.953	57.11
683.14	57.67
683.326	58.64
683.513	57.24
683.7	57.77
683.886	58.28
684.073	59.72
684.259	58.09
684.446	54.84
684.632	53.59
684.819	52.94
685.005	51.74
685.192	52.16
685.378	49.91
685.565	50.06
685.751	50.08
685.938	51.07
686.124	49.02
686.31	50.64
686.497	51.61
686.683	53.48
686.87	54.6
687.056	54.07
687.242	53.97
687.429	54.6
687.615	53.67
687.801	53.65
687.987	52.92
688.174	52.12
688.36	52.08
688.546	52.12
688.732	50.9
688.918	49.14
689.105	50.25
689.291	49.05
689.477	48.49
689.663	49.78
689.849	49.14
690.035	50.33
690.221	52.07
690.407	49.4
690.593	50.41
690.779	49.5
690.965	50.41
691.151	48.33
691.337	49.55
691.523	51.82
691.709	52.29
691.895	51.73
692.081	51.07
692.267	50.56
692.453	52.35
692.639	51.22
692.825	52.74
693.011	52.66
693.196	54.57
693.382	54.5
693.568	52.51
693.754	52.42
693.94	52.93
694.125	52.47
694.311	52.26
694.497	52.37
694.682	52.73
694.868	53.23
695.054	53.23
695.239	53.17
695.425	54.07
695.611	55.23
695.796	55.84
695.982	55.63
696.168	55.42
696.353	55.69
696.539	55.21
696.724	54.89
696.91	54.35
697.095	53.14
697.281	54
697.466	52.96
697.652	51.95
697.837	50.93
698.023	51.05
698.208	51.66
698.393	50
698.579	50.51
698.764	50.66
698.949	49.38
699.135	50.11
699.32	48.81
699.505	49.27
699.691	49.68
699.876	49.95
700.061	50.13
700.246	48.8
700.432	50.24
700.617	48.1
700.802	47.46
700.987	48.86
701.172	48.6
701.358	48.75
701.543	49.98
701.728	49.32
701.913	48.7
702.098	49.83
702.283	49.84
702.468	51.02
702.653	53.1
702.838	54.55
703.023	54.53
703.208	54.41
703.393	55.87
703.578	53.45
703.763	54.95
703.948	54.54
704.133	51.95
704.318	54.66
704.503	54.24
704.688	55.09
704.873	54.79
705.057	55.07
705.242	54.4
705.427	54.8
705.612	55.62
705.797	54.71
705.981	53.87
706.166	55.68
706.351	54.67
706.536	54.24
706.72	52.96
706.905	52.99
707.09	51.8
707.274	52.81
707.459	50.28
707.644	51.58
707.828	51.68
708.013	51.74
708.197	50.02
708.382	50.67
708.567	52.49
708.751	52.71
708.936	50.8
709.12	51.26
709.305	51.91
709.489	52.8
709.673	51.37
709.858	50.49
710.042	49.87
710.227	51.04
710.411	49.26
710.596	48.52
710.78	47.1
710.964	46.61
711.149	48.35
711.333	47.36
711.517	49.28
711.702	48.49
711.886	49.61
712.07	51.01
712.254	49
712.438	49.02
712.623	48.09
712.807	48.56
712.991	50.42
713.175	49.56
713.359	49.71
713.544	47.18
713.728	47.7
713.912	44.87
714.096	45.89
714.28	47.83
714.464	47.9
714.648	48.56
714.832	49.58
715.016	48.38
715.2	48.14
715.384	48.01
715.568	48.61
715.752	49.27
715.936	50.86
716.12	50.85
716.304	51.02
716.488	52.31
716.671	51
716.855	51.03
717.039	51.69
717.223	53.56
717.407	53.73
717.59	53.75
717.774	51.69
717.958	53.33
718.142	50.62
718.325	50.39
718.509	48.99
718.693	51.57
718.877	50.9
719.06	52.44
719.244	49.66
719.428	49.4
719.611	48.97
719.795	51.06
719.978	49.04
720.162	52.24
720.345	54.4
720.529	55.24
720.713	53.26
720.896	52.37
721.08	50.15
721.263	51.37
721.446	52.8
721.63	53.35
721.813	55.43
721.997	55.27
722.18	53.77
722.364	54.14
722.547	50.9
722.73	52.34
722.914	56.02
723.097	55.52
723.28	52.67
723.464	50.91
723.647	50.63
723.83	48.43
724.013	49.13
724.197	48.82
724.38	47.34
724.563	49.32
724.746	47.13
724.929	45.02
725.112	41.56
725.296	44.35
725.479	45.39
725.662	47.54
725.845	46.48
726.028	45.76
726.211	47.08
726.394	45.33
726.577	46.55
726.76	47.7
726.943	47.3
727.126	52.39
727.309	51.65
727.492	51.17
727.675	47.66
727.858	49.25
728.041	50.01
728.224	49.6
728.407	49.94
728.589	51.36
728.772	48.33
728.955	50
729.138	48.89
729.321	48.73
729.503	49.77
729.686	51.77
729.869	51.23
730.052	51.49
730.234	52.21
730.417	51.76
730.6	50
730.782	52.97
730.965	52.92
731.148	53
731.33	53.81
731.513	53.81
731.695	51.96
731.878	52.77
732.061	51.87
732.243	50.56
732.426	51.08
732.608	51.15
732.791	50.35
732.973	48.6
733.156	48.55
733.338	47.86
733.52	47.9
733.703	49.55
733.885	48.39
734.068	50.65
734.25	50.69
734.432	50.32
734.615	48.85
734.797	49.84
734.979	51
735.162	52.86
735.344	52.46
735.526	50.86
735.708	49.87
735.891	49.86
736.073	49.16
736.255	50.07
736.437	51.76
736.619	53.57
736.802	52.09
736.984	50.8
737.166	50.04
737.348	51.29
737.53	51.29
737.712	50.64
737.894	52.36
738.076	50.9
738.258	50.3
738.44	47.66
738.622	46.74
738.804	46.84
738.986	47.68
739.168	46.74
739.35	46.64
739.532	46.07
739.714	48.81
739.896	46.56
740.078	49.75
740.259	50.11
740.441	52.45
740.623	53.46
740.805	51.04
740.987	50.09
741.168	51.83
741.35	51.35
741.532	52.74
741.714	51.78
741.895	51.35
742.077	51.07
742.259	50.37
742.44	51.61
742.622	53.98
742.804	57.19
742.985	57.34
743.167	55.82
743.348	57.79
743.53	58.09
743.711	59.12
743.893	61.19
744.075	60.91
744.256	63.05
744.438	61.8
744.619	58.81
744.8	54.95
744.982	57.1
745.163	56.34
745.345	52.85
745.526	55.03
745.707	50.79
745.889	52.2
746.07	48.42
746.252	45.63
746.433	46.15
746.614	44.37
746.795	49.07
746.977	49.34
747.158	48.55
747.339	51.11
747.52	49.85
747.702	52.83
747.883	52.92
748.064	50.35
748.245	51.94
748.426	47.67
748.607	48.85
748.788	50.38
748.97	48.72
749.151	50.15
749.332	44.91
749.513	45.35
749.694	47.86
749.875	42.95
750.056	45.87
750.237	46.7
750.418	52.42
750.599	52.66
750.78	46.54
750.96	47.14
751.141	47.16
751.322	50.29
751.503	47.97
751.684	43.96
751.865	47.71
752.046	50.18
752.226	48.58
752.407	49.46
752.588	48.42
752.769	51.81
752.949	49.8
753.13	51.31
753.311	51.94
753.492	53.37
753.672	53.53
753.853	51.64
754.034	49.76
754.214	51.41
754.395	50.24
754.575	53.5
754.756	52.09
754.937	53.33
755.117	51.89
755.298	52.54
755.478	50.95
755.659	53.23
755.839	50.43
756.02	49.9
756.2	48.66
756.381	49.27
756.561	47.03
756.741	49.79
756.922	51.25
757.102	50.02
757.283	50.39
757.463	50.61
757.643	51.82
757.823	53.55
758.004	54.34
758.184	53.73
758.364	48.59
758.545	47.54
758.725	43.28
758.905	42.68
759.085	41.93
759.265	42
759.446	42.19
759.626	42.09
759.806	44.08
759.986	45.99
760.166	45.8
760.346	45.21
760.526	48.56
760.706	51.09
760.886	50.02
761.066	50.45
761.246	49.41
761.426	51.02
761.606	48.07
761.786	48.65
761.966	48.16
762.146	49.71
762.326	51.67
762.506	50.11
762.686	50.53
762.866	52.35
763.046	52.22
763.225	52.06
763.405	51.84
763.585	50.43
763.765	48.66
763.945	51.01
764.124	50.8
764.304	51.11
764.484	51.23
764.664	53.15
764.843	52.21
765.023	55.11
765.203	54.33
765.382	50.43
765.562	55.88
765.741	58.56
765.921	54.21
766.101	53.05
766.28	52.03
766.46	52.25
766.639	46.8
766.819	49.01
766.998	44.4
767.178	44.81
767.357	49.8
767.537	46.68
767.716	42.07
767.896	41.48
768.075	40.38
768.254	38
768.434	39.8
768.613	46.92
768.792	45.53
768.972	46.81
769.151	47.05
769.33	46.12
769.51	43.58
769.689	45.72
769.868	41.01
770.047	41.8
770.226	47.81
770.406	45.1
770.585	45.95
770.764	46.53
770.943	46.51
771.122	47.61
771.301	43.62
771.48	47.23
771.66	50.17
771.839	56.99
772.018	59.66
772.197	60.06
772.376	61.08
772.555	60.55
772.734	56.08
772.913	55.89
773.092	59.92
773.271	66
773.449	65.92
773.628	62.59
773.807	57.67
773.986	57.39
774.165	55.03
774.344	52.89
774.523	49.13
774.701	52.11
774.88	56.25
775.059	49.31
775.238	48.59
775.417	49.08
775.595	47.5
775.774	54.26
775.953	46.63
776.131	45.73
776.31	47.14
776.489	47.34
776.667	48.89
776.846	46.62
777.025	53.05
777.203	46.2
777.382	45.18
777.56	47.53
777.739	44.55
777.917	52.16
778.096	53.8
778.274	55.38
778.453	55.85
778.631	52.86
778.81	53.34
778.988	51.12
779.166	54.92
779.345	50.71
779.523	47.03
779.702	46.53
779.88	46.35
780.058	46.83
780.237	46.37
780.415	46.38
780.593	43.19
780.771	38.06
780.95	37.68
781.128	41.39
781.306	44.1
781.484	42.4
781.662	41.93
781.841	40
782.019	35.94
782.197	30.68
782.375	31.77
782.553	36.15
782.731	38.98
782.909	39.05
783.087	34
783.265	30.73
783.443	37.85
783.621	38.71
783.799	35.21
783.977	41.52
784.155	45.65
784.333	42.5
784.511	39.23
784.689	38.49
784.867	38.18
785.045	37.94
785.223	38.82
785.4	37.58
785.578	38.29
785.756	47.52
785.934	44.83
786.112	43.82
786.289	45.52
786.467	46.41
786.645	48.1
786.823	50.05
787	47.75
787.178	51.76
787.356	52.27
787.533	54.74
787.711	50
787.889	49
788.066	51.17
788.244	50.22
788.421	49.49
788.599	48.71
788.776	44.65
788.954	49.65
789.131	45.22
789.309	43.54
789.486	35.34
789.664	33.93
789.841	34.58
790.019	33.11
790.196	33.05
790.373	34.32
790.551	39.18
790.728	42.96
790.906	42.21
791.083	46.9
791.26	39.45
791.437	43.06
791.615	40.37
791.792	46.01
791.969	46.56
792.146	44.98
792.324	46.6
792.501	39.87
792.678	43.01
792.855	41.83
793.032	37.47
793.209	44.37
793.387	44.2
793.564	50.14
793.741	45.27
793.918	43.8
794.095	42.4
794.272	48.73
794.449	53.71
794.626	45.71
794.803	47.88
794.98	56.3
795.157	60.42
795.334	62.25
795.511	59.51
795.688	63.19
795.864	61.85
796.041	64.06
796.218	50.94
796.395	53.49
796.572	57.69
796.749	53.41
796.925	46.14
797.102	45.33
797.279	50.45
797.456	48.63
797.632	44.69
797.809	41.49
797.986	39.63
798.162	45.58
798.339	42.55
798.516	42.61
798.692	44.35
798.869	47.87
799.046	42.17
799.222	35.56
799.399	35.46
799.575	35.51
799.752	40.52
799.928	40.83
800.105	41.11
800.281	42.15
800.458	43.84
800.634	45.64
800.811	41.05
800.987	41.25
801.163	39.88
801.34	42.26
801.516	42.7
801.692	42.06
801.869	43.17
802.045	41.82
802.221	44.37
802.398	35.64
802.574	32.06
802.75	35.77
802.926	41.13
803.103	48.47
803.279	46.95
803.455	44.9
803.631	41.71
803.807	44.14
803.983	38.25
804.16	32.76
804.336	40.53
804.512	41.41
804.688	42.84
804.864	45.53
805.04	37.99
805.216	39.09
805.392	34.24
805.568	39.15
805.744	38.77
805.92	44.41
806.096	45.86
806.272	40.2
806.448	38.24
806.623	36.79
806.799	29.48
806.975	31.93
807.151	32.91
807.327	52.43
807.503	54.2
807.678	56.08
807.854	57.06
808.03	57.45
808.206	61.94
808.381	58.67
808.557	53.95
808.733	57.14
808.908	58.64
809.084	55.86
809.26	55.25
809.435	55.73
809.611	45.61
809.787	37.59
809.962	36.24
810.138	35.62
810.313	33.92
810.489	36.58
810.664	31.41
810.84	30.56
811.015	29.66
811.191	26.49
811.366	23.52
811.542	31.69
811.717	44.51
811.892	48.41
812.068	44.85
812.243	53.14
812.419	44.75
812.594	48.99
812.769	51.43
812.944	46.5
813.12	43.79
813.295	43.59
813.47	47.67
813.645	44.74
813.821	47.42
813.996	47.01
814.171	44.44
814.346	50.07
814.521	54.39
814.697	55.24
814.872	56.46
815.047	54.36
815.222	55.14
815.397	46.53
815.572	41.34
815.747	38.12
815.922	34.44
816.097	33.17
816.272	36.8
816.447	25.73
816.622	20.17
816.797	30.03
816.972	30.33
817.147	25.85
817.322	28.86
817.496	28.47
817.671	26.79
817.846	28.4
818.021	30.03
818.196	26.14
818.371	29.09
818.545	28.78
818.72	32.91
818.895	27.77
819.069	32.65
819.244	38.87
819.419	43.55
819.594	42.93
819.768	45.87
819.943	45.63
820.117	46.84
820.292	46.31
820.467	45.56
820.641	41.55
820.816	44.24
820.99	42.43
821.165	43.11
821.339	41.59
821.514	42.4
821.688	43.3
821.863	42.24
822.037	42.32
822.212	41.16
822.386	41.58
822.56	41.71
822.735	40.95
822.909	41.42
823.084	40.05
823.258	39.79
823.432	38.87
823.606	37.57
823.781	37.75
823.955	36.97
824.129	38.36
824.303	37.57
824.478	37.57
824.652	39.23
824.826	40.88
825	42.16
825.174	45.2
825.348	46.6
825.523	46.4
825.697	48.07
825.871	49.66
826.045	48.15
826.219	48.71
826.393	49.81
826.567	48
826.741	46.82
826.915	46.2
827.089	42.86
827.263	43.86
827.437	44.98
827.611	42.48
827.784	40.65
827.958	41.58
828.132	43.21
828.306	42.53
828.48	43.44
828.654	44.98
828.827	45.08
829.001	48.49
829.175	46.22
829.349	44.45
829.522	43.21
829.696	44.71
829.87	45.98
830.044	37.42
830.217	37.97
830.391	40.52
830.565	30.26
830.738	33.78
830.912	35.07
831.085	39.16
831.259	38.64
831.432	43.7
831.606	39.9
831.779	39.69
831.953	46.13
832.126	45.29
832.3	42.36
832.473	50.7
832.647	44.71
832.82	41.06
832.994	39.1
833.167	42.36
833.34	39.63
833.514	41.74
833.687	41.45
833.86	39.96
834.034	40.34
834.207	39.23
834.38	37.91
834.553	39.82
834.727	38.92
834.9	39.76
835.073	38.43
835.246	41.51
835.419	36.78
835.593	33.4
835.766	38.6
835.939	37.06
836.112	33.66
836.285	34.15
836.458	30.31
836.631	28.95
836.804	22.78
836.977	21.49
837.15	17.82
837.323	35.93
837.496	45.04
837.669	25.58
837.842	25.05
838.015	27.11
838.188	23.97
838.361	29.78
838.533	35.3
838.706	37.89
838.879	38.01
839.052	41.01
839.225	23.17
839.398	24.88
839.57	31.78
839.743	36.16
839.916	47.98
840.088	47.89
840.261	46.84
840.434	43.06
840.607	46.37
840.779	43.75
840.952	43.83
841.124	43.43
841.297	37.72
841.47	44.55
841.642	38.83
841.815	27.63
841.987	30.22
842.16	30.36
842.332	25.71
842.505	34.65
842.677	26.19
842.85	33.04
843.022	47.91
843.194	48.85
843.367	50.42
843.539	47.58
843.712	56.38
843.884	61.57
844.056	63.1
844.229	70.46
844.401	58.43
844.573	77.19
844.745	75.41
844.918	56.87
845.09	46.8
845.262	48.78
845.434	50.65
845.606	50.67
845.779	30.21
845.951	37.97
846.123	49.17
846.295	44.34
846.467	17.52
846.639	-18.22
846.811	1.6
846.983	-5.3
847.155	-157.93
847.327	-79.44
847.499	-129.52
847.671	22.4
847.843	-24.87
848.015	-93.4
848.187	-48.73
848.359	-25.81
848.531	18.15
848.703	26.52
848.875	27.82
849.047	42.37
849.218	30.82
849.39	40.3
849.562	27.37
849.734	50.26
849.905	54.87
850.077	61.03
850.249	64.55
850.421	65.37
850.592	63.42
850.764	60.48
850.936	64.7
851.107	68.25
851.279	71.18
851.451	74.18
851.622	66.23
851.794	62.94
851.965	58.3
852.137	57.98
852.308	50.47
852.48	51.21
852.651	55.4
852.823	40.34
852.994	33.81
853.166	15.68
853.337	18.71
853.509	23.97
853.68	5.08
853.851	8.11
854.023	-9.91
854.194	-14.26
854.365	-42.37
854.537	-87.15
854.708	-42.06
854.879	-18.18
855.05	5.55
855.222	-7.94
855.393	-29.9
855.564	-19.18
855.735	-60.48
855.906	-31.86
856.078	-23.74
856.249	7.82
856.42	19.08
856.591	-0.37
856.762	8.77
856.933	14.19
857.104	1.84
857.275	5.72
857.446	27.63
857.617	41.21
857.788	35.36
857.959	30.62
858.13	14.58
858.301	24.04
858.472	24.7
858.643	14.3
858.814	2.6
858.985	13.45
859.155	22.34
859.326	-5.71
859.497	-17.95
859.668	-21.63
859.839	-19.46
860.009	-12.63
860.18	-37.55
860.351	-10.39
860.522	10.91
860.692	11.2
860.863	10.32
861.034	-3.15
861.204	11.83
861.375	16.86
861.546	26.27
861.716	22.38
861.887	22.34
862.057	28.09
862.228	12.28
862.398	-15.55
862.569	-83.02
862.739	-139.29
862.91	-83
863.08	-51.08
863.251	-63.42
863.421	-62.71
863.592	-37.66
863.762	-16.22
863.932	-16.92
864.103	-51.1
864.273	-46.14
864.443	1.23
864.614	43.16
864.784	35.26
864.954	53.27
865.125	68.96
865.295	67.24
865.465	63.24
865.635	59.59
865.805	89.49
865.976	142
866.146	61.57
866.316	208.56
866.486	1831.82
866.656	-254.08
866.826	-7.52
866.996	46.07
867.166	4.75
867.336	-9.95
867.506	-198.01
867.676	477.04
867.846	206.8
868.016	262.62
868.186	107.03
868.356	49.44
868.526	52.79
868.696	58.06
868.866	56.36
869.036	44
869.206	52.93
869.376	35.51
869.545	35.31
869.715	17.9
869.885	19.35
870.055	26.82
870.224	33.63
870.394	33.81
870.564	30.46
870.734	57.79
870.903	64.22
871.073	66.99
871.243	76.01
871.412	98.98
871.582	109.6
871.751	97.85
871.921	75.57
872.091	91.01
872.26	103.97
872.43	88.11
872.599	87
872.769	52.55
872.938	43.53
873.108	48.09
873.277	62.32
873.446	25.18
873.616	36.14
873.785	54.18
873.955	35.91
874.124	16.19
874.293	23.95
874.463	-26.16
874.632	-10.31
874.801	-32.98
874.971	-51.13
875.14	-116.64
875.309	-61.51
875.478	-61.96
875.647	-93.35
875.817	-72.59
875.986	-52.15
876.155	-31.8
876.324	24.04
876.493	17.5
876.662	50.45
876.831	38.55
877	69.99
877.17	-12.33
877.339	-109.61
877.508	34.83
877.677	841.8
877.846	-10.17
878.015	-39.01
878.184	-33.14
878.352	-16.69
878.521	-44.54
878.69	-40.92
878.859	-15.19
879.028	24.09
879.197	23.16
879.366	18.46
879.534	36.77
879.703	39.84
879.872	50.93
880.041	43.04
880.21	42.43
880.378	44.73
880.547	46.75
880.716	43.27
880.884	39.2
881.053	43.51
881.222	45.17
881.39	41.4
881.559	42.76
881.727	42.12
881.896	40.06
882.065	40.28
882.233	37.86
882.402	39.7
882.57	38.14
882.739	36.69
882.907	31.07
883.076	31.45
883.244	30.01
883.412	27.91
883.581	23.12
883.749	25.24
883.918	24.63
884.086	20.86
884.254	14.3
884.423	17.65
884.591	20.74
884.759	22.65
884.927	22.35
885.096	23.61
885.264	16.76
885.432	22.28
885.6	17.45
885.769	12.88
885.937	15.5
886.105	13.1
886.273	20.86
886.441	16.75
886.609	15.24
886.777	21.49
886.945	8.28
887.113	20.23
887.281	11.07
887.449	15.93
887.617	20.5
887.785	20.28
887.953	27.87
888.121	5.73
888.289	-1
888.457	2.11
888.625	-19.34
888.793	-12.5
888.961	-26.05
889.129	-17.75
889.296	-58.11
889.464	-128.97
889.632	-67.29
889.8	-145.72
889.967	-61.85
890.135	-67.51
