Data from JASIL_3104_Reflection_1.txt Node
Date: Thu Nov 12 19:40:32 EST 2015
User: Geneva
Spectrometer: USB4E03002
Autoset integration time: false
Trigger mode: 4
Integration Time (sec): 1.000000E-1
Scans to average: 10
Electric dark correction enabled: true
Nonlinearity correction enabled: false
Boxcar width: 5
Stray light correction enabled: false
XAxis mode: Wavelengths
Stop averaging: false
Number of Pixels in Spectrum: 3648
>>>>>Begin Spectral Data<<<<<
177.575	6.89
177.794	-20.26
178.014	326.29
178.233	96.88
178.452	96.43
178.672	64.53
178.891	138.38
179.11	155.76
179.33	107.21
179.549	131.72
179.768	156.47
179.987	135.05
180.207	107.46
180.426	67.1
180.645	134.27
180.864	52.31
181.084	94.05
181.303	92
181.522	-60.73
181.741	52.4
181.96	49.65
182.179	52.14
182.398	86.62
182.618	134.25
182.837	123.82
183.056	1397.26
183.275	-735.92
183.494	149.92
183.713	100.15
183.932	-169.93
184.151	-382.03
184.37	309.72
184.589	233.16
184.808	250.56
185.027	784.98
185.246	-156.75
185.465	-116.89
185.684	-119.26
185.903	-242.41
186.122	-169.3
186.341	-490.47
186.56	-735.07
186.779	-204.56
186.998	5825.33
187.216	415.63
187.435	391.63
187.654	93
187.873	97.65
188.092	-7.56
188.311	730.51
188.53	-266.21
188.748	-553.16
188.967	487.94
189.186	-74.02
189.405	-339.07
189.623	-1778.07
189.842	390.5
190.061	344.13
190.28	159.96
190.498	24.83
190.717	342.59
190.936	-384.38
191.154	406.78
191.373	258.11
191.592	-2543.4
191.81	880.86
192.029	-607.31
192.248	-287.8
192.466	-287.18
192.685	-485.39
192.904	1061.25
193.122	457.25
193.341	212.92
193.559	212.41
193.778	205.84
193.996	169.33
194.215	472.4
194.433	19.58
194.652	66.51
194.87	7.74
195.089	-72.2
195.307	426.26
195.526	435.78
195.744	-267.84
195.963	102.49
196.181	80.83
196.399	42.03
196.618	207.23
196.836	195.7
197.055	95.08
197.273	77.17
197.491	81.45
197.71	69.07
197.928	62.39
198.146	30.47
198.365	48.82
198.583	21.61
198.801	52.56
199.019	49.42
199.238	46.72
199.456	42.48
199.674	44.52
199.892	33.42
200.111	295.78
200.329	182.21
200.547	-62.42
200.765	11.96
200.983	15.55
201.202	24.03
201.42	28.78
201.638	9.9
201.856	-14.54
202.074	12.09
202.292	13.7
202.51	-53.87
202.728	-55.66
202.946	-10.89
203.165	827.95
203.383	448.47
203.601	274.77
203.819	462.19
204.037	-277.19
204.255	28.57
204.473	717.07
204.691	-26.89
204.909	-33.66
205.127	83.84
205.345	102.45
205.562	-3.89
205.78	-13.89
205.998	-250.74
206.216	-43.1
206.434	26.1
206.652	51.52
206.87	61.27
207.088	40.13
207.306	57.93
207.523	102.76
207.741	54.38
207.959	313
208.177	18470
208.395	282.16
208.612	504.61
208.83	-484.14
209.048	-350.58
209.266	-313.36
209.483	-124.12
209.701	-43.37
209.919	-11.24
210.136	-3.16
210.354	28.4
210.572	32.51
210.79	53.47
211.007	49.57
211.225	44.72
211.442	51.73
211.66	51.81
211.878	68.17
212.095	62.15
212.313	68.92
212.53	79.14
212.748	102.29
212.966	140
213.183	229.32
213.401	369.77
213.618	214.17
213.836	206.5
214.053	340.56
214.271	-247.15
214.488	-73.38
214.705	-310.92
214.923	323.41
215.14	3962.96
215.358	-254.1
215.575	400
215.793	62.29
216.01	294.26
216.227	-569.25
216.445	-230.46
216.662	221.09
216.879	1817.29
217.097	-36.51
217.314	11.42
217.531	241.21
217.749	140.81
217.966	235.96
218.183	207.01
218.4	69.58
218.618	424.48
218.835	-194.04
219.052	155.03
219.269	77.32
219.487	60.83
219.704	115.64
219.921	50.97
220.138	137.35
220.355	106.72
220.572	198.62
220.79	185.45
221.007	71.63
221.224	82.15
221.441	93.44
221.658	110.65
221.875	114.47
222.092	-187.31
222.309	-275.08
222.526	-597.82
222.743	-487.65
222.96	-110.15
223.177	598.1
223.394	-30.34
223.611	-20.17
223.828	17.12
224.045	7.03
224.262	-42.14
224.479	-348.7
224.696	-47.83
224.913	-59.28
225.13	-0.69
225.347	-3.63
225.564	-15.35
225.781	24.3
225.997	-1.67
226.214	-8.53
226.431	-16.4
226.648	4.47
226.865	-0.1
227.082	2.9
227.298	3.26
227.515	10.49
227.732	7.21
227.949	5.33
228.165	-1.48
228.382	3.22
228.599	6.44
228.816	6.2
229.032	7.2
229.249	12.03
229.466	12.52
229.682	15.6
229.899	0.05
230.116	5.82
230.332	-1.56
230.549	-3.36
230.765	-6.1
230.982	-10.4
231.199	-0.27
231.415	-17
231.632	-34.05
231.848	-43.83
232.065	-43.92
232.281	-13.3
232.498	-15.49
232.714	-2.55
232.931	-0.83
233.147	14.72
233.364	14.18
233.58	-3.49
233.797	-0.83
234.013	13
234.23	7.16
234.446	-11.9
234.662	-32.76
234.879	-42.41
235.095	-51.48
235.312	-42.65
235.528	-40.39
235.744	-31.13
235.961	-34.48
236.177	-38.87
236.393	-33.68
236.61	-18.93
236.826	-4.02
237.042	-12.29
237.258	-19.77
237.475	9.35
237.691	15.57
237.907	17.11
238.123	17.97
238.339	3.19
238.556	14.9
238.772	20.06
238.988	0.62
239.204	-11.23
239.42	-3.1
239.636	13.97
239.853	0.36
240.069	-4.44
240.285	-1.61
240.501	-3.31
240.717	5.98
240.933	7.47
241.149	6.42
241.365	12.17
241.581	9.54
241.797	15.61
242.013	8.75
242.229	9.08
242.445	11.14
242.661	12.6
242.877	14.84
243.093	15.74
243.309	11.97
243.525	11.64
243.741	8.06
243.957	8.6
244.173	4.78
244.388	9.44
244.604	14.45
244.82	16.49
245.036	12.57
245.252	9.99
245.468	4.54
245.683	4.44
245.899	4.26
246.115	4.86
246.331	5.92
246.547	6.97
246.762	6.29
246.978	5.76
247.194	4.03
247.409	6.46
247.625	6.29
247.841	9.51
248.057	9.33
248.272	7.89
248.488	5.82
248.703	5.68
248.919	2.49
249.135	6.12
249.35	4.84
249.566	2.22
249.782	-5.27
249.997	-3.18
250.213	-3.7
250.428	-1.32
250.644	-2.3
250.859	5.53
251.075	6.94
251.29	10.36
251.506	8.69
251.721	7.6
251.937	9.86
252.152	9.05
252.368	7.4
252.583	5.68
252.798	6.15
253.014	5.37
253.229	5.9
253.445	8.6
253.66	5.12
253.875	0.24
254.091	-6.36
254.306	-6.39
254.521	-4.48
254.737	-2.25
254.952	-8.53
255.167	-14.64
255.383	-7.96
255.598	-14.21
255.813	-18.18
256.028	-18.93
256.244	-19.54
256.459	-9.69
256.674	-7.07
256.889	-9.15
257.104	-9.36
257.32	-5.43
257.535	-3.33
257.75	-4.1
257.965	-0.61
258.18	-0.94
258.395	1.22
258.61	-0.9
258.826	-1.29
259.041	-3.6
259.256	-2.57
259.471	-3.2
259.686	-0.3
259.901	-1.3
260.116	0.82
260.331	1.53
260.546	3.55
260.761	2.17
260.976	3.15
261.191	1.13
261.406	2.7
261.621	5.08
261.836	4.05
262.05	3.77
262.265	4.42
262.48	-3.51
262.695	-6.06
262.91	-10.65
263.125	-7.62
263.34	-2.77
263.555	1.43
263.769	3.87
263.984	5.48
264.199	10.8
264.414	5.93
264.629	8.77
264.843	12.55
265.058	6.89
265.273	11.35
265.488	11.63
265.702	11.43
265.917	10.93
266.132	10.55
266.346	5.61
266.561	3.19
266.776	3.79
266.99	2.09
267.205	5.71
267.42	11.11
267.634	9.82
267.849	8.57
268.063	9.78
268.278	7.46
268.492	4.62
268.707	7.08
268.922	9.92
269.136	8.42
269.351	11.36
269.565	9.18
269.78	5.87
269.994	4.81
270.209	4.29
270.423	0.53
270.637	3.23
270.852	3.66
271.066	4.93
271.281	3.97
271.495	6.38
271.709	3.86
271.924	3.1
272.138	4.21
272.353	3.76
272.567	2.91
272.781	3.15
272.996	2.56
273.21	3.57
273.424	0.93
273.638	0.47
273.853	-1.32
274.067	2.4
274.281	3.26
274.495	3.2
274.71	3.57
274.924	5.02
275.138	6.4
275.352	5.03
275.566	4.99
275.781	6.27
275.995	8.27
276.209	11.27
276.423	9.69
276.637	9.45
276.851	9.23
277.065	9.02
277.279	7.79
277.493	10.65
277.707	10.79
277.921	12.5
278.135	13.33
278.349	11.62
278.563	5.74
278.777	5.13
278.991	5.64
279.205	5.9
279.419	7.67
279.633	5.96
279.847	3.07
280.061	1.23
280.275	-1.77
280.489	-3.62
280.703	-3.05
280.917	-2.47
281.131	-0.99
281.344	-1.17
281.558	-2.67
281.772	-6.96
281.986	-4.02
282.2	-4.57
282.414	-3.84
282.627	-3.39
282.841	-3.71
283.055	-3.96
283.269	0.68
283.482	0.04
283.696	-3.44
283.91	-1.26
284.123	-0.54
284.337	-1.08
284.551	1.95
284.764	0.84
284.978	2.82
285.192	4.94
285.405	4.68
285.619	3.44
285.833	3.29
286.046	5.94
286.26	4.98
286.473	6.6
286.687	7.09
286.9	4.57
287.114	7.16
287.327	5.74
287.541	4.91
287.754	5.67
287.968	4.96
288.181	4.9
288.395	3.14
288.608	3.22
288.822	4.17
289.035	3.51
289.248	4.11
289.462	3.22
289.675	3.42
289.889	5.1
290.102	5.24
290.315	3.35
290.529	4.36
290.742	5.97
290.955	8.83
291.169	5.76
291.382	4.82
291.595	5.51
291.808	5.57
292.022	5.08
292.235	1.84
292.448	4.46
292.661	7.39
292.875	5.08
293.088	2.61
293.301	1.18
293.514	1.65
293.727	2.18
293.94	3.32
294.153	1.03
294.367	1.85
294.58	1.57
294.793	0.24
295.006	-1.16
295.219	0.37
295.432	1.09
295.645	-2.66
295.858	-2.06
296.071	-1.83
296.284	-2.78
296.497	0.29
296.71	-0.87
296.923	2.75
297.136	1.79
297.349	2.1
297.562	1.37
297.775	1.69
297.988	2.95
298.201	2.93
298.414	2.84
298.626	2.37
298.839	0.93
299.052	1.4
299.265	-1.4
299.478	-3.73
299.691	-2.88
299.903	-0.71
300.116	-1.78
300.329	-0.95
300.542	-1.24
300.755	-2.19
300.967	0.48
301.18	-0.04
301.393	0.92
301.605	0.1
301.818	4.02
302.031	2.96
302.243	1.56
302.456	-0.58
302.669	0.3
302.881	3.09
303.094	4.74
303.307	0.11
303.519	0.73
303.732	2.29
303.944	1.96
304.157	-0.64
304.37	0.3
304.582	1.19
304.795	4.3
305.007	2.86
305.22	2.66
305.432	0.73
305.645	3.63
305.857	3.5
306.069	1.99
306.282	2.71
306.494	4
306.707	4.63
306.919	0.93
307.132	1.27
307.344	2.12
307.556	0.95
307.769	-0.98
307.981	-2.36
308.193	-3.67
308.406	-3.93
308.618	-2.4
308.83	-2.67
309.043	-2.98
309.255	-0.63
309.467	-0.83
309.679	0.01
309.892	1.47
310.104	4.79
310.316	5.04
310.528	6.39
310.74	6.89
310.953	5.92
311.165	9.71
311.377	10.22
311.589	9.65
311.801	10.55
312.013	10.41
312.225	7.63
312.437	5.56
312.649	7.23
312.862	7.32
313.074	6.32
313.286	6.84
313.498	1.72
313.71	1.34
313.922	1.61
314.134	1.91
314.346	0.94
314.558	0.61
314.77	1.6
314.982	1.08
315.193	2.93
315.405	1.91
315.617	0.72
315.829	1.18
316.041	-1.03
316.253	0.87
316.465	-0.4
316.677	1.7
316.888	3.97
317.1	5.18
317.312	5.86
317.524	2.34
317.736	2.81
317.947	2.25
318.159	3.68
318.371	2.08
318.583	-1.06
318.794	0.68
319.006	1.3
319.218	0.77
319.43	1.81
319.641	-1.42
319.853	-0.48
320.064	1.07
320.276	3.79
320.488	3.93
320.699	4.81
320.911	5.24
321.123	2.64
321.334	-0.89
321.546	-0.99
321.757	-3.22
321.969	-3.44
322.18	-4.11
322.392	-4.53
322.603	-4.01
322.815	-5.05
323.026	-2.51
323.238	-0.72
323.449	-0
323.661	1.61
323.872	0.66
324.083	-0
324.295	3.57
324.506	5.11
324.718	5.73
324.929	5.52
325.14	7.01
325.352	7.51
325.563	9.8
325.774	12.67
325.986	11.56
326.197	13.72
326.408	16.19
326.62	16.64
326.831	17.58
327.042	16.1
327.253	14.41
327.464	13.69
327.676	15.39
327.887	14.55
328.098	12.7
328.309	13.39
328.52	12.89
328.732	12.24
328.943	11.03
329.154	9.16
329.365	10.87
329.576	13.46
329.787	13.07
329.998	10.48
330.209	7.69
330.42	7.45
330.631	9.07
330.842	9.34
331.053	9.08
331.264	7.38
331.475	8.93
331.686	7.69
331.897	6.3
332.108	5.8
332.319	5.03
332.53	7.93
332.741	6.71
332.952	5.41
333.163	6.99
333.374	6.41
333.585	7.19
333.795	6.08
334.006	6.01
334.217	5.08
334.428	5.6
334.639	6.26
334.849	4.09
335.06	3.6
335.271	1.73
335.482	-2.24
335.692	-1.22
335.903	-1.54
336.114	-1.7
336.325	-0.3
336.535	1.13
336.746	0.7
336.957	2.43
337.167	4.23
337.378	5.15
337.589	8
337.799	10.09
338.01	8.77
338.22	8.47
338.431	8.5
338.642	6.83
338.852	5.41
339.063	5.29
339.273	4.15
339.484	1.59
339.694	1.71
339.905	0.87
340.115	2.02
340.326	2.33
340.536	2.39
340.746	3.42
340.957	2.42
341.167	4.21
341.378	4.06
341.588	5
341.799	7.55
342.009	8.2
342.219	9.24
342.43	7.78
342.64	8.17
342.85	8.86
343.061	7.89
343.271	9.21
343.481	6.66
343.691	7.44
343.902	5.18
344.112	1.66
344.322	-0.24
344.532	-1.06
344.743	-0.63
344.953	-1.04
345.163	-1.29
345.373	-1.33
345.583	-1.7
345.793	-1.47
346.004	-0.46
346.214	1.47
346.424	4.24
346.634	5.69
346.844	5.84
347.054	5.64
347.264	5.79
347.474	4.92
347.684	6.07
347.894	9.1
348.104	12.24
348.314	12.23
348.524	12
348.734	11.45
348.944	12.74
349.154	13.8
349.364	15.34
349.574	14.35
349.784	14.78
349.994	14.47
350.204	12.35
350.413	12.15
350.623	11.32
350.833	10.92
351.043	9.27
351.253	8.17
351.463	5.67
351.672	3.93
351.882	5.61
352.092	4.47
352.302	3.65
352.511	5.85
352.721	5.16
352.931	5.73
353.141	4.63
353.35	5.19
353.56	5.57
353.77	6.29
353.979	6.6
354.189	6.3
354.399	8.22
354.608	8.83
354.818	7.91
355.027	5.77
355.237	5.19
355.447	6.38
355.656	7.46
355.866	5.71
356.075	5.58
356.285	4.56
356.494	4.26
356.704	4.47
356.913	4.61
357.123	2.57
357.332	2.38
357.542	0.24
357.751	0.15
357.96	1.25
358.17	2.33
358.379	2.64
358.589	4.39
358.798	5.72
359.007	4.95
359.217	3.44
359.426	5.49
359.635	6.35
359.845	8.61
360.054	8.16
360.263	7.24
360.472	7.21
360.682	6.97
360.891	5.68
361.1	5.25
361.309	5.66
361.519	7.28
361.728	6.71
361.937	7.19
362.146	5.91
362.355	6.48
362.564	5.77
362.774	5.47
362.983	7.06
363.192	7.57
363.401	7.02
363.61	6.93
363.819	5.99
364.028	6.43
364.237	6.27
364.446	6.58
364.655	6.68
364.864	6.49
365.073	5.17
365.282	4.52
365.491	4.92
365.7	5.76
365.909	5.68
366.118	6.48
366.327	6.25
366.536	6.28
366.745	6.01
366.954	5.14
367.162	5.64
367.371	6.85
367.58	6.6
367.789	5.28
367.998	3.92
368.207	3.93
368.415	2.15
368.624	1.6
368.833	1.67
369.042	2.43
369.25	4.29
369.459	4.01
369.668	3.93
369.877	3.31
370.085	4.21
370.294	5.4
370.503	5.47
370.711	7.05
370.92	6.43
371.129	6.81
371.337	7.35
371.546	4.79
371.754	5.63
371.963	5.65
372.171	5.34
372.38	4.64
372.589	5.58
372.797	6.15
373.006	5.27
373.214	4.92
373.423	4.9
373.631	4.93
373.84	5.19
374.048	5.17
374.256	5.03
374.465	4.59
374.673	5.54
374.882	4.21
375.09	3.82
375.298	3.79
375.507	5.37
375.715	5.98
375.923	4.51
376.132	5.55
376.34	4.53
376.548	5.11
376.757	5.3
376.965	5.62
377.173	5.73
377.381	4.42
377.59	5.18
377.798	4.67
378.006	4.21
378.214	5.59
378.423	6.66
378.631	7.57
378.839	7.7
379.047	8.77
379.255	9.69
379.463	9.59
379.671	10.85
379.879	11.4
380.088	12.05
380.296	11.63
380.504	11.46
380.712	10.28
380.92	10.24
381.128	9.8
381.336	9.52
381.544	9.31
381.752	9.77
381.96	10.19
382.168	8.58
382.376	7.04
382.584	7.34
382.791	7.61
382.999	8.87
383.207	7.56
383.415	8.94
383.623	7.69
383.831	7.31
384.039	5.31
384.247	5.34
384.454	6.57
384.662	7.75
384.87	6.87
385.078	6.61
385.285	4.53
385.493	6.21
385.701	4.9
385.909	5.17
386.116	4.17
386.324	5.5
386.532	5.28
386.739	3.96
386.947	3.63
387.155	3.07
387.362	3.17
387.57	4.48
387.778	5.01
387.985	4.38
388.193	3.58
388.4	3.46
388.608	3.72
388.816	3.63
389.023	5.82
389.231	5.72
389.438	5.95
389.646	5.9
389.853	6
390.061	5.28
390.268	6.34
390.475	7.9
390.683	7.18
390.89	6.82
391.098	5.85
391.305	4.56
391.512	4.45
391.72	5.21
391.927	4.58
392.135	4.81
392.342	4.8
392.549	4.61
392.756	4.79
392.964	5.73
393.171	5.01
393.378	5.9
393.586	5.53
393.793	5.85
394	5.27
394.207	5.36
394.414	4.29
394.622	3.58
394.829	3.49
395.036	3.04
395.243	3.09
395.45	3.71
395.657	3.26
395.864	3.42
396.072	2.69
396.279	3.43
396.486	4.39
396.693	4.46
396.9	4.39
397.107	4.06
397.314	3.73
397.521	4.5
397.728	3.79
397.935	3.6
398.142	3.21
398.349	2.9
398.556	3.23
398.763	2.28
398.97	2.44
399.177	3.68
399.383	4.07
399.59	4.47
399.797	2.92
400.004	4.84
400.211	5.03
400.418	5.35
400.625	6.02
400.831	5.9
401.038	6.69
401.245	6.94
401.452	6.33
401.658	6.28
401.865	6.85
402.072	7.59
402.279	6.55
402.485	6.41
402.692	7.26
402.899	6.63
403.105	5.84
403.312	5.35
403.519	5.93
403.725	5.31
403.932	6.82
404.138	5.93
404.345	5.23
404.552	4.57
404.758	4.8
404.965	4.22
405.171	5.54
405.378	5.99
405.584	5.46
405.791	5.46
405.997	5.71
406.204	4.66
406.41	4.32
406.617	3.61
406.823	4.92
407.029	5.39
407.236	6.06
407.442	6.03
407.649	6.23
407.855	6.25
408.061	6.2
408.268	7.1
408.474	7.07
408.68	7.66
408.887	8.39
409.093	8.48
409.299	8.31
409.505	7.3
409.712	7.49
409.918	6.66
410.124	6.93
410.33	5.94
410.537	5.64
410.743	5.3
410.949	4.46
411.155	5.16
411.361	3.89
411.567	3.42
411.773	3.77
411.98	2.95
412.186	4.33
412.392	4.36
412.598	4.35
412.804	4.38
413.01	3.75
413.216	4.2
413.422	3.91
413.628	4.35
413.834	4.38
414.04	4.47
414.246	4.56
414.452	4.13
414.658	4.59
414.864	5.4
415.07	4.58
415.275	4.88
415.481	4.83
415.687	4.27
415.893	4.12
416.099	3.45
416.305	3.18
416.511	3.38
416.716	3
416.922	3.51
417.128	3.06
417.334	3.39
417.539	3.38
417.745	3.42
417.951	3.61
418.157	3.96
418.362	4.44
418.568	4.89
418.774	4.33
418.979	3.54
419.185	3.04
419.391	3.2
419.596	3.25
419.802	3.36
420.008	3.42
420.213	3.45
420.419	2.66
420.624	2.94
420.83	2.53
421.035	2.89
421.241	3.84
421.446	4.1
421.652	4.14
421.857	3.6
422.063	3.57
422.268	3.5
422.474	3.4
422.679	4
422.885	3.78
423.09	3.82
423.295	3.84
423.501	3.78
423.706	3.4
423.911	3.54
424.117	3.94
424.322	4.21
424.527	4.56
424.733	4.9
424.938	5.03
425.143	5.49
425.349	5.64
425.554	5.15
425.759	5.07
425.964	5.47
426.169	5.36
426.375	5.02
426.58	4.19
426.785	3.31
426.99	3.37
427.195	2.88
427.4	1.8
427.605	0.84
427.811	1.46
428.016	1.13
428.221	-0.15
428.426	-0.06
428.631	0.12
428.836	0.87
429.041	1.2
429.246	0.62
429.451	0.85
429.656	0.63
429.861	1.55
430.066	1.44
430.271	2.14
430.476	2.61
430.681	2.66
430.886	2.59
431.09	2.85
431.295	3.08
431.5	3.31
431.705	3.33
431.91	3.67
432.115	3.45
432.32	2.73
432.524	2.14
432.729	3.17
432.934	3.4
433.139	4.06
433.343	3.15
433.548	3.85
433.753	3.61
433.958	4.18
434.162	3.99
434.367	4.36
434.572	5.18
434.776	5.64
434.981	5.01
435.186	4.18
435.39	3.93
435.595	4.04
435.799	3.23
436.004	3.87
436.209	2.5
436.413	2.56
436.618	2.93
436.822	3.08
437.027	2.72
437.231	2.97
437.436	3.55
437.64	3.57
437.845	4.08
438.049	4.54
438.253	3.92
438.458	4.55
438.662	4.63
438.867	3.78
439.071	3.19
439.275	3.24
439.48	3.37
439.684	3.52
439.888	3.44
440.093	3.37
440.297	3.12
440.501	3.63
440.706	3.31
440.91	4.02
441.114	4.14
441.318	4.09
441.523	3.94
441.727	3.7
441.931	3.38
442.135	3.28
442.339	3.22
442.543	3.03
442.748	2.96
442.952	2.97
443.156	2.73
443.36	2.92
443.564	3.35
443.768	3.82
443.972	3.46
444.176	3.5
444.38	3.34
444.584	3.37
444.788	3.8
444.992	3.77
445.196	3.98
445.4	3.28
445.604	3.31
445.808	3.46
446.012	3.34
446.216	3.63
446.42	3.54
446.624	3.92
446.828	4.1
447.032	3.6
447.235	3.68
447.439	3.59
447.643	4.18
447.847	4.71
448.051	4.33
448.254	4.15
448.458	3.73
448.662	3.67
448.866	3.08
449.069	2.33
449.273	2.59
449.477	2.27
449.681	2.04
449.884	2.19
450.088	1.52
450.292	1.68
450.495	1.81
450.699	1.87
450.902	2.09
451.106	2.53
451.31	2.75
451.513	2.96
451.717	3.13
451.92	3.48
452.124	3.51
452.327	3.37
452.531	3.58
452.734	3.83
452.938	4.22
453.141	4.07
453.345	4.41
453.548	5.12
453.752	4.82
453.955	5.26
454.158	5.29
454.362	5.04
454.565	5.71
454.769	5.36
454.972	4.8
455.175	4.37
455.379	4.41
455.582	4
455.785	4.45
455.988	4.53
456.192	4.01
456.395	3.7
456.598	3.32
456.801	2.89
457.005	3.57
457.208	3.78
457.411	3.93
457.614	3.98
457.817	3.66
458.021	3.22
458.224	3.1
458.427	2.96
458.63	3
458.833	2.82
459.036	3.29
459.239	2.75
459.442	2.88
459.645	2.93
459.848	2.57
460.051	2.65
460.254	2.6
460.457	2.56
460.66	2.74
460.863	2.48
461.066	2.96
461.269	2.5
461.472	2.31
461.675	1.98
461.878	2.28
462.081	2.28
462.284	2.25
462.486	1.95
462.689	1.81
462.892	1.27
463.095	2.11
463.298	2.33
463.5	2.09
463.703	2.58
463.906	2.88
464.109	2.29
464.311	1.84
464.514	2
464.717	2.15
464.92	2.04
465.122	2.65
465.325	2.37
465.528	2.2
465.73	1.82
465.933	1.99
466.135	1.73
466.338	1.82
466.541	2.71
466.743	3.35
466.946	2.93
467.148	3.35
467.351	3.07
467.553	2.81
467.756	2.4
467.958	2.62
468.161	2.52
468.363	2.7
468.566	3.36
468.768	3.16
468.971	2.25
469.173	2.83
469.375	2.69
469.578	2.93
469.78	2.8
469.983	2.81
470.185	3.05
470.387	3.47
470.59	3.83
470.792	2.92
470.994	3.03
471.196	3.15
471.399	3.43
471.601	3.54
471.803	3.86
472.005	4.43
472.208	4.39
472.41	3.62
472.612	3.76
472.814	3.39
473.016	3.45
473.218	3.81
473.421	3.95
473.623	3.85
473.825	3.75
474.027	3.46
474.229	3.56
474.431	3.73
474.633	4.32
474.835	4.09
475.037	3.78
475.239	4.26
475.441	3.82
475.643	3.69
475.845	2.96
476.047	3.23
476.249	3.22
476.451	3.18
476.653	3.82
476.855	3.82
477.057	3.86
477.258	4.4
477.46	4.52
477.662	4.62
477.864	4.52
478.066	5.1
478.268	4.84
478.469	4.7
478.671	4.59
478.873	4.2
479.075	4.6
479.276	4.67
479.478	4.12
479.68	3.73
479.882	3.52
480.083	3.54
480.285	3.23
480.487	3.61
480.688	3.55
480.89	3.58
481.091	3.19
481.293	3.19
481.495	2.92
481.696	3.08
481.898	3.34
482.099	3.46
482.301	3.74
482.502	3.89
482.704	3.87
482.905	3.93
483.107	3.84
483.308	4.05
483.51	3.93
483.711	3.88
483.913	4.1
484.114	4.02
484.315	4.07
484.517	3.88
484.718	3.88
484.92	3.81
485.121	3.83
485.322	4.11
485.524	4.07
485.725	4.04
485.926	4.19
486.127	4.07
486.329	3.9
486.53	3.83
486.731	3.96
486.932	3.78
487.134	3.81
487.335	3.94
487.536	3.58
487.737	3.6
487.938	3.66
488.139	3.51
488.341	3.41
488.542	3.68
488.743	3.6
488.944	3.51
489.145	3.85
489.346	3.85
489.547	3.49
489.748	3.83
489.949	3.84
490.15	4.06
490.351	4.29
490.552	4.4
490.753	4.27
490.954	4.43
491.155	4.48
491.356	4.34
491.557	4.35
491.758	4.49
491.959	4.3
492.159	4.1
492.36	4.22
492.561	4.24
492.762	4
492.963	4.32
493.164	4.17
493.364	4.35
493.565	4.38
493.766	4.27
493.967	4.72
494.167	5.03
494.368	5.61
494.569	5.55
494.769	5.14
494.97	5.46
495.171	5.18
495.371	5.61
495.572	5.22
495.773	5.23
495.973	4.98
496.174	4.67
496.375	4.69
496.575	4.62
496.776	4.15
496.976	4.67
497.177	4.83
497.377	4.72
497.578	4.26
497.778	4.5
497.979	4.59
498.179	4.57
498.38	4.76
498.58	4.49
498.78	3.97
498.981	4.51
499.181	4.35
499.382	4.09
499.582	4.29
499.782	4.28
499.983	4.08
500.183	4.12
500.383	4.4
500.584	3.93
500.784	4.12
500.984	4.86
501.184	4.14
501.385	4.13
501.585	4.03
501.785	4.01
501.985	3.8
502.185	3.85
502.386	3.69
502.586	4.07
502.786	4.37
502.986	4.33
503.186	4.06
503.386	4.36
503.586	4.25
503.786	4.37
503.987	4.2
504.187	4.43
504.387	4.72
504.587	4.67
504.787	4.49
504.987	4.44
505.187	4.58
505.387	3.84
505.587	3.93
505.786	3.93
505.986	4.14
506.186	4.65
506.386	4.71
506.586	4.83
506.786	4.86
506.986	4.62
507.186	4.76
507.386	4.82
507.585	5.78
507.785	5.87
507.985	6.27
508.185	5.96
508.384	5.86
508.584	6.35
508.784	6.08
508.984	6.16
509.183	6.14
509.383	5.92
509.583	6.09
509.782	5.94
509.982	5.7
510.182	5.74
510.381	5.97
510.581	6.09
510.781	5.97
510.98	6.03
511.18	6.26
511.379	6.19
511.579	6.13
511.778	5.89
511.978	5.89
512.177	6.52
512.377	5.75
512.576	5.44
512.776	5.08
512.975	5.13
513.175	5.44
513.374	5.12
513.573	5.8
513.773	6.37
513.972	6.81
514.172	7.02
514.371	6.52
514.57	6.79
514.77	6.95
514.969	6.67
515.168	6.44
515.367	6.2
515.567	6.45
515.766	5.88
515.965	5.49
516.164	5.21
516.364	4.9
516.563	4.61
516.762	4.75
516.961	5.03
517.16	5.35
517.359	5.69
517.559	5.84
517.758	5.58
517.957	5.68
518.156	5.64
518.355	5.82
518.554	5.93
518.753	6.36
518.952	6.16
519.151	6.29
519.35	6.42
519.549	6.36
519.748	6.72
519.947	6.78
520.146	6.71
520.345	6.98
520.544	6.91
520.743	6.87
520.942	6.41
521.141	6.76
521.339	6.4
521.538	6.31
521.737	6.36
521.936	5.61
522.135	6.07
522.333	6.46
522.532	6.45
522.731	6.4
522.93	6.25
523.129	6.75
523.327	6.82
523.526	7.05
523.725	7.16
523.923	6.98
524.122	7.17
524.321	7.28
524.519	7.16
524.718	6.94
524.917	6.61
525.115	6.81
525.314	6.88
525.512	6.88
525.711	6.64
525.909	6.59
526.108	6.75
526.306	6.82
526.505	6.67
526.703	6.64
526.902	6.81
527.1	7.05
527.299	7.06
527.497	7.12
527.696	7.16
527.894	7.27
528.092	7.23
528.291	7.24
528.489	7.29
528.688	7.17
528.886	7.08
529.084	7.06
529.283	7.06
529.481	7.02
529.679	7
529.877	6.91
530.076	7.03
530.274	7.45
530.472	7.45
530.67	7.64
530.869	7.69
531.067	7.92
531.265	7.88
531.463	7.82
531.661	7.99
531.859	8
532.057	8.07
532.255	8.03
532.454	7.82
532.652	7.53
532.85	7.45
533.048	7.88
533.246	7.82
533.444	8.16
533.642	8.07
533.84	8.27
534.038	8.39
534.236	8.41
534.434	8.43
534.632	8.43
534.83	9.06
535.027	9.11
535.225	8.79
535.423	8.96
535.621	8.75
535.819	9.22
536.017	8.71
536.215	8.52
536.412	8.84
536.61	8.9
536.808	8.37
537.006	8.05
537.203	7.93
537.401	8.23
537.599	8.47
537.797	8.77
537.994	8.43
538.192	9.06
538.39	9.06
538.587	8.86
538.785	8.4
538.983	9.36
539.18	9.59
539.378	9.45
539.575	9.05
539.773	9
539.97	8.86
540.168	9.03
540.366	8.95
540.563	8.91
540.761	8.93
540.958	9.09
541.155	8.88
541.353	8.98
541.55	9.07
541.748	9.2
541.945	9.25
542.143	9.22
542.34	9.2
542.537	9.2
542.735	9.38
542.932	9.09
543.129	9.44
543.327	9.56
543.524	9.36
543.721	9.43
543.919	9.45
544.116	9.21
544.313	9.21
544.51	9.1
544.708	8.97
544.905	9.28
545.102	9.55
545.299	9.6
545.496	9.42
545.693	9.68
545.891	9.84
546.088	9.93
546.285	10.17
546.482	10.54
546.679	10.42
546.876	10.73
547.073	10.38
547.27	11.12
547.467	10.63
547.664	10.97
547.861	10.74
548.058	10.78
548.255	10.82
548.452	11.05
548.649	11.24
548.846	11.62
549.043	12.14
549.24	12.11
549.437	11.19
549.633	11.7
549.83	11.75
550.027	11.76
550.224	11.71
550.421	11.83
550.618	11.26
550.814	10.68
551.011	10.74
551.208	9.63
551.405	10.16
551.601	10.78
551.798	10.98
551.995	11.05
552.191	10.88
552.388	10.52
552.585	10.12
552.781	10.49
552.978	10.97
553.175	10.69
553.371	11.39
553.568	10.89
553.764	10.46
553.961	10.61
554.157	10.3
554.354	10.79
554.55	11.58
554.747	11.89
554.943	11.98
555.14	11.59
555.336	12.39
555.533	12.16
555.729	12.02
555.926	12.45
556.122	12.91
556.318	13.05
556.515	12.36
556.711	12.18
556.907	12.21
557.104	11.81
557.3	11.9
557.496	11.71
557.693	12.03
557.889	12.75
558.085	12.46
558.281	12
558.478	11.87
558.674	12.55
558.87	12.43
559.066	12.86
559.262	13.38
559.459	13.68
559.655	14.26
559.851	14.4
560.047	14
560.243	14.4
560.439	14.34
560.635	14.21
560.831	14.45
561.027	14.26
561.223	14.32
561.419	14.3
561.615	13.83
561.811	13.48
562.007	13.24
562.203	13.08
562.399	13.05
562.595	13.03
562.791	13.87
562.987	14.18
563.183	14.78
563.379	14.54
563.575	14.86
563.771	15.31
563.966	15.19
564.162	14.89
564.358	15.52
564.554	15.68
564.75	15.95
564.945	15.97
565.141	15.38
565.337	15.38
565.533	15.17
565.728	15.15
565.924	14.86
566.12	14.68
566.315	15.18
566.511	14.98
566.707	15.33
566.902	14.93
567.098	14.5
567.293	14.93
567.489	14.68
567.684	14.88
567.88	14.44
568.076	15.11
568.271	15.64
568.467	14.8
568.662	15.07
568.858	14.89
569.053	15.63
569.248	15.98
569.444	16.19
569.639	16.6
569.835	16.87
570.03	17.46
570.225	17.11
570.421	17.44
570.616	18.07
570.812	17.9
571.007	18.07
571.202	17.47
571.397	17.94
571.593	18.06
571.788	17.73
571.983	17.75
572.178	17.58
572.374	18.05
572.569	17.89
572.764	18.34
572.959	18.89
573.154	18.9
573.35	18.99
573.545	18.79
573.74	18.34
573.935	18.85
574.13	18.87
574.325	19.06
574.52	18.57
574.715	18.63
574.91	18.75
575.105	18.33
575.3	18.24
575.495	18.77
575.69	18.54
575.885	18.48
576.08	18.33
576.275	18.38
576.47	18.04
576.665	18.9
576.86	18.71
577.055	19.03
577.25	19.44
577.444	19.61
577.639	19.82
577.834	20.39
578.029	20.99
578.224	21.06
578.418	21.42
578.613	22.1
578.808	21.89
579.003	22.37
579.197	21.77
579.392	21.3
579.587	20.62
579.781	20.35
579.976	19.63
580.171	19.18
580.365	18.77
580.56	19.13
580.755	19.4
580.949	19.06
581.144	19.07
581.338	19.12
581.533	19.59
581.727	20.26
581.922	20.48
582.116	21.33
582.311	21.63
582.505	21.27
582.7	21.29
582.894	20.91
583.089	20.37
583.283	20.49
583.478	19.93
583.672	20.38
583.866	20.14
584.061	20.19
584.255	20.36
584.449	20.56
584.644	21.67
584.838	21.71
585.032	22.12
585.226	23.01
585.421	23.42
585.615	24.41
585.809	24.3
586.003	24.69
586.198	24.95
586.392	24.17
586.586	24.13
586.78	24.02
586.974	23.87
587.168	23.24
587.363	23.4
587.557	22.55
587.751	22.41
587.945	22.27
588.139	22.13
588.333	22.44
588.527	22.48
588.721	22.08
588.915	22.88
589.109	22.21
589.303	22.64
589.497	22.38
589.691	22.45
589.885	22.81
590.079	22.84
590.273	22.41
590.466	22.31
590.66	22.69
590.854	23.27
591.048	23.05
591.242	23.59
591.436	23.6
591.629	23.59
591.823	24.06
592.017	23.97
592.211	24.29
592.404	24.95
592.598	24.23
592.792	24.09
592.986	23.93
593.179	23.46
593.373	23.62
593.567	23.7
593.76	24
593.954	23.83
594.147	23.21
594.341	22.83
594.535	22.88
594.728	22.58
594.922	22.33
595.115	22.62
595.309	23.02
595.502	23.05
595.696	23.56
595.889	23.92
596.083	24.16
596.276	24.55
596.47	25.01
596.663	24.72
596.856	25.44
597.05	26.26
597.243	25.81
597.437	25.71
597.63	26.09
597.823	25.18
598.017	24.63
598.21	24.61
598.403	25.71
598.596	25.2
598.79	25.67
598.983	25.68
599.176	24.85
599.369	26.13
599.563	26.15
599.756	25.85
599.949	25.82
600.142	26.01
600.335	25.93
600.528	24.81
600.722	25.57
600.915	26.14
601.108	25.9
601.301	26.13
601.494	24.92
601.687	25.09
601.88	25.11
602.073	25.31
602.266	25.38
602.459	25.44
602.652	25.99
602.845	25.89
603.038	25.53
603.231	25.28
603.424	25.81
603.617	26.09
603.809	26.15
604.002	26.53
604.195	27.36
604.388	27.55
604.581	27.36
604.774	26.85
604.966	26.87
605.159	26.81
605.352	27.76
605.545	27.69
605.737	28.2
605.93	28.22
606.123	28.23
606.316	27.85
606.508	28
606.701	27.7
606.894	27.89
607.086	27.57
607.279	27.52
607.471	27.19
607.664	26.41
607.857	26.74
608.049	26.04
608.242	25.28
608.434	25.01
608.627	25.17
608.819	25.78
609.012	25.55
609.204	25.32
609.397	26.04
609.589	25.48
609.782	25.29
609.974	25.27
610.166	25.74
610.359	26.77
610.551	27.32
610.743	27.48
610.936	27.3
611.128	27.21
611.32	28.05
611.513	27.64
611.705	27.95
611.897	29.02
612.09	28.91
612.282	28.96
612.474	28.21
612.666	28
612.858	27.76
613.051	28.24
613.243	28.64
613.435	28.4
613.627	27.74
613.819	28.52
614.011	28.55
614.203	28.26
614.395	27.79
614.588	28.54
614.78	28.23
614.972	28.47
615.164	28.15
615.356	28.26
615.548	28.14
615.74	28.91
615.932	28.33
616.124	28.55
616.315	28.46
616.507	29.22
616.699	28.41
616.891	28.33
617.083	28.26
617.275	28.73
617.467	28.76
617.659	28.65
617.85	28.19
618.042	28.77
618.234	28.2
618.426	27.9
618.618	27.57
618.809	28.3
619.001	28.75
619.193	28
619.384	27.11
619.576	26.24
619.768	25.86
619.959	25.16
620.151	24.88
620.343	24.5
620.534	25.65
620.726	25.74
620.917	24.69
621.109	24.78
621.301	25.48
621.492	26.24
621.684	26.83
621.875	26.95
622.067	27.7
622.258	27.8
622.45	27.89
622.641	26.73
622.832	26.38
623.024	26.63
623.215	25.46
623.407	25.2
623.598	25.03
623.789	24.12
623.981	24.42
624.172	25.14
624.363	24.51
624.555	24.36
624.746	24.55
624.937	25.02
625.129	25.9
625.32	27
625.511	26.99
625.702	27.63
625.893	28.25
626.085	29.14
626.276	29.19
626.467	29.6
626.658	30.05
626.849	30.47
627.04	30.35
627.231	29.91
627.422	29.75
627.614	30.16
627.805	29.49
627.996	29.59
628.187	29
628.378	28.46
628.569	29.21
628.76	29.84
628.951	29.06
629.142	30.17
629.332	30.37
629.523	30.21
629.714	30.14
629.905	30.52
630.096	31.1
630.287	31.39
630.478	31.3
630.669	30.25
630.859	29.84
631.05	30.24
631.241	29.22
631.432	29.24
631.623	29.9
631.813	29.78
632.004	29.72
632.195	29.17
632.385	29.03
632.576	28.11
632.767	28.72
632.957	29.2
633.148	30.44
633.339	30.27
633.529	29.77
633.72	29.68
633.91	29.52
634.101	29.88
634.292	30.9
634.482	30.54
634.673	31.36
634.863	31.25
635.054	30.9
635.244	29.66
635.435	29.64
635.625	30.71
635.815	29.51
636.006	29.4
636.196	28.87
636.387	28.02
636.577	27.41
636.767	27.44
636.958	27.62
637.148	26.79
637.338	26.79
637.529	27.3
637.719	26.74
637.909	27.1
638.099	27.19
638.29	27.33
638.48	27.69
638.67	28.21
638.86	28.38
639.05	29
639.241	30.51
639.431	31.19
639.621	30.98
639.811	30.71
640.001	31.02
640.191	31.14
640.381	31.6
640.571	31.66
640.761	31.8
640.951	31.74
641.141	30.58
641.331	30.22
641.521	30.93
641.711	30.83
641.901	32.66
642.091	33.28
642.281	33.55
642.471	32.93
642.661	32.45
642.851	32.64
643.041	33.85
643.231	34.37
643.42	34.12
643.61	32.81
643.8	32.59
643.99	30.91
644.18	30.86
644.369	30.66
644.559	30.93
644.749	30.79
644.939	31.18
645.128	30.69
645.318	31.28
645.508	32.64
645.697	33.44
645.887	33.27
646.076	33.18
646.266	33.43
646.456	34.3
646.645	33.69
646.835	34.58
647.024	34.62
647.214	34.09
647.403	33.21
647.593	31.7
647.782	31.41
647.972	32.3
648.161	33.25
648.351	32.4
648.54	30.87
648.73	31.84
648.919	31.57
649.108	30.71
649.298	30.5
649.487	31.41
649.677	31.8
649.866	30.86
650.055	30.47
650.244	29.27
650.434	30.28
650.623	31.5
650.812	31.12
651.002	31.45
651.191	31.4
651.38	31.2
651.569	31.12
651.758	30.09
651.947	31.03
652.137	31.45
652.326	32.04
652.515	31.36
652.704	30.13
652.893	30.45
653.082	28.83
653.271	28.72
653.46	29.29
653.649	28.26
653.838	29.18
654.027	29.21
654.216	28.57
654.405	28.28
654.594	28.82
654.783	29.04
654.972	29
655.161	30.66
655.35	31.33
655.539	31.66
655.728	31.94
655.916	31.64
656.105	31.89
656.294	32.09
656.483	31.72
656.672	31.53
656.86	31.47
657.049	30.9
657.238	30.64
657.427	30.73
657.615	31.32
657.804	31.73
657.993	32.5
658.181	32.11
658.37	32.8
658.559	33.02
658.747	33.69
658.936	33.27
659.125	34.29
659.313	34.19
659.502	34.78
659.69	33.8
659.879	33.93
660.067	33.99
660.256	34.14
660.444	33.06
660.633	33.45
660.821	33.64
661.01	34.44
661.198	33.01
661.387	33.5
661.575	33.28
661.763	33.58
661.952	32.91
662.14	32.03
662.328	32.11
662.517	32.75
662.705	32.51
662.893	32.85
663.082	33.07
663.27	33.93
663.458	33.92
663.646	32.95
663.834	33.22
664.023	33.18
664.211	34.02
664.399	33.24
664.587	33.09
664.775	33.64
664.963	31.05
665.152	32.89
665.34	34.06
665.528	33.82
665.716	35.09
665.904	34.64
666.092	35.38
666.28	34.22
666.468	35.84
666.656	36.63
666.844	36.92
667.032	37.79
667.22	35.17
667.408	33.67
667.596	33.5
667.784	32.69
667.971	33.51
668.159	32.78
668.347	33.55
668.535	31.53
668.723	30.97
668.911	31.41
669.098	31.89
669.286	32.81
669.474	32.88
669.662	32.39
669.849	32.14
670.037	31.95
670.225	32.63
670.413	32.17
670.6	33.45
670.788	34.04
670.976	33.06
671.163	32.96
671.351	32.18
671.538	33.85
671.726	35.22
671.913	36.13
672.101	35.62
672.289	34.84
672.476	35.08
672.664	35.05
672.851	34.17
673.039	35.12
673.226	35.77
673.413	35.64
673.601	32.88
673.788	31.92
673.976	30.83
674.163	31.13
674.35	32.9
674.538	33.09
674.725	34.38
674.912	34.1
675.1	33.25
675.287	32.82
675.474	34.92
675.662	35.85
675.849	36.86
676.036	36.91
676.223	37.3
676.411	37.38
676.598	36.68
676.785	36.34
676.972	35.97
677.159	35.74
677.346	36.49
677.533	36.61
677.721	37.94
677.908	37.22
678.095	37.98
678.282	37.65
678.469	36.66
678.656	36.27
678.843	35.26
679.03	36.24
679.217	36.02
679.404	35.39
679.591	35.38
679.778	34.72
679.964	35.75
680.151	36.25
680.338	35.84
680.525	36.54
680.712	37.19
680.899	37.53
681.086	37.06
681.272	38.19
681.459	38.05
681.646	36.55
681.833	34.99
682.02	34.23
682.206	34.79
682.393	36.71
682.58	35.43
682.766	36.86
682.953	36.93
683.14	36.85
683.326	36.34
683.513	34.77
683.7	35.14
683.886	36.98
684.073	35.59
684.259	34.5
684.446	32.58
684.632	32.55
684.819	31.04
685.005	31.27
685.192	32.73
685.378	31.54
685.565	33.49
685.751	33.97
685.938	33.97
686.124	35.5
686.31	34.76
686.497	34.96
686.683	35.59
686.87	36.4
687.056	35.97
687.242	34.7
687.429	35.26
687.615	34.76
687.801	34.31
687.987	33.48
688.174	33.24
688.36	34.8
688.546	34.95
688.732	35.3
688.918	35.93
689.105	36.78
689.291	37.56
689.477	38.04
689.663	37.49
689.849	37.95
690.035	38.74
690.221	39.39
690.407	37.88
690.593	39.16
690.779	37.86
690.965	36.44
691.151	35.22
691.337	35.47
691.523	35.81
691.709	37.7
691.895	38.18
692.081	37.83
692.267	36.56
692.453	36.83
692.639	35.56
692.825	34.98
693.011	36.92
693.196	37.09
693.382	36.43
693.568	36.47
693.754	35.68
693.94	35.21
694.125	36.68
694.311	36.5
694.497	36.56
694.682	35.58
694.868	38.15
695.054	36.45
695.239	37.49
695.425	37.12
695.611	36.96
695.796	35.83
695.982	35.63
696.168	35.46
696.353	35.66
696.539	36.56
696.724	37.46
696.91	36.32
697.095	36.09
697.281	35.73
697.466	37.34
697.652	36.77
697.837	37.5
698.023	37.58
698.208	37.47
698.393	35.47
698.579	34.08
698.764	33.21
698.949	33.87
699.135	34.39
699.32	34.75
699.505	33.31
699.691	33.63
699.876	33.38
700.061	34
700.246	33.73
700.432	36.77
700.617	37.28
700.802	39.19
700.987	39.39
701.172	39.26
701.358	37.95
701.543	38.69
701.728	38.39
701.913	38.72
702.098	38.87
702.283	38.97
702.468	37.94
702.653	38.43
702.838	37.71
703.023	36.2
703.208	35.82
703.393	36.93
703.578	35.5
703.763	36.06
703.948	37.02
704.133	35.29
704.318	36.54
704.503	38.27
704.688	39.33
704.873	40
705.057	41.19
705.242	41.42
705.427	40.7
705.612	40.96
705.797	40.73
705.981	39.58
706.166	40.56
706.351	39.41
706.536	36.73
706.72	36.26
706.905	36.41
707.09	35.71
707.274	36.71
707.459	38.18
707.644	38.94
707.828	38.75
708.013	39.11
708.197	38.76
708.382	37.77
708.567	39.04
708.751	39.53
708.936	39.93
709.12	40.92
709.305	39.78
709.489	37.51
709.673	38.35
709.858	38.21
710.042	36.47
710.227	36.25
710.411	35.86
710.596	37.16
710.78	37.18
710.964	35.45
711.149	34.65
711.333	34.32
711.517	35.91
711.702	33.81
711.886	34.36
712.07	35
712.254	35.85
712.438	36.99
712.623	37.02
712.807	36.25
712.991	36.53
713.175	36.5
713.359	36.12
713.544	36.9
713.728	38.41
713.912	36.19
714.096	36.48
714.28	35.19
714.464	33.37
714.648	32.63
714.832	33.81
715.016	33.46
715.2	33.11
715.384	36.77
715.568	35.33
715.752	37.15
715.936	38.02
716.12	38.67
716.304	39.97
716.488	41.81
716.671	40.7
716.855	38.83
717.039	39.57
717.223	40.63
717.407	36.96
717.59	40.12
717.774	37.43
717.958	39.78
718.142	38.01
718.325	37.76
718.509	35.89
718.693	37.39
718.877	38.02
719.06	39.03
719.244	39.56
719.428	39.68
719.611	35.99
719.795	35.99
719.978	32.96
720.162	34.77
720.345	34.4
720.529	35.64
720.713	36.97
720.896	36.04
721.08	36.42
721.263	35.9
721.446	35.71
721.63	36.81
721.813	38.92
721.997	38.98
722.18	37.14
722.364	38.7
722.547	37.63
722.73	36.03
722.914	37.6
723.097	35.84
723.28	34.31
723.464	32.95
723.647	33.45
723.83	32.85
724.013	34.86
724.197	37.42
724.38	36.65
724.563	39.25
724.746	38.16
724.929	36.57
725.112	34.04
725.296	36.23
725.479	39.4
725.662	40.8
725.845	42.14
726.028	41.38
726.211	40.97
726.394	41.01
726.577	40.15
726.76	41.53
726.943	43.55
727.126	46.38
727.309	43.9
727.492	42.22
727.675	41.32
727.858	39.84
728.041	38.64
728.224	38.14
728.407	37.77
728.589	38.8
728.772	36.36
728.955	38.01
729.138	35.8
729.321	36.13
729.503	38.02
729.686	37.76
729.869	37.22
730.052	40.14
730.234	39.3
730.417	39.54
730.6	37.75
730.782	40.96
730.965	39.89
731.148	43.28
731.33	43.52
731.513	41.01
731.695	39.25
731.878	39.47
732.061	38.56
732.243	38.63
732.426	37.62
732.608	38.49
732.791	38.63
732.973	37.46
733.156	33.13
733.338	35.69
733.52	36.66
733.703	37.74
733.885	39.04
734.068	39.26
734.25	40.3
734.432	42.38
734.615	40.6
734.797	37.94
734.979	37.85
735.162	41.71
735.344	40.51
735.526	39.96
735.708	40.94
735.891	41.93
736.073	39.14
736.255	39.21
736.437	36.68
736.619	36.69
736.802	40.01
736.984	40.34
737.166	39.87
737.348	37.91
737.53	38.95
737.712	37.92
737.894	34.89
738.076	35.88
738.258	34.38
738.44	33.94
738.622	34.71
738.804	30.71
738.986	32.36
739.168	33.89
739.35	32.8
739.532	31.09
739.714	33.61
739.896	34.2
740.078	36.5
740.259	36.81
740.441	39.83
740.623	41.55
740.805	41.6
740.987	38.85
741.168	36.19
741.35	40.83
741.532	41.75
741.714	41.29
741.895	40.52
742.077	37.66
742.259	41.29
742.44	39.83
742.622	37.29
742.804	39.11
742.985	41.18
743.167	41.73
743.348	39.56
743.53	38.55
743.711	40.37
743.893	40.75
744.075	41.18
744.256	40
744.438	41.6
744.619	42.91
744.8	43.05
744.982	40.9
745.163	40.88
745.345	42.29
745.526	49.08
745.707	43.84
745.889	43.45
746.07	45.45
746.252	43.02
746.433	41.58
746.614	43.77
746.795	44.57
746.977	43.81
747.158	43.22
747.339	41.13
747.52	37.57
747.702	40.96
747.883	43.25
748.064	40.88
748.245	40.35
748.426	39.11
748.607	36.88
748.788	36.19
748.97	34.13
749.151	36.47
749.332	38.4
749.513	38
749.694	37.04
749.875	32.65
750.056	33.35
750.237	38.35
750.418	38.57
750.599	39.08
750.78	37.18
750.96	42.45
751.141	40.87
751.322	41.1
751.503	41.78
751.684	41.47
751.865	44.39
752.046	45.7
752.226	44.7
752.407	44.16
752.588	45.83
752.769	48.88
752.949	45.32
753.13	47.01
753.311	47.63
753.492	44.81
753.672	45.38
753.853	43.95
754.034	44.28
754.214	41.01
754.395	40.28
754.575	38.45
754.756	36.95
754.937	40.34
755.117	38.23
755.298	34.86
755.478	37.04
755.659	37.25
755.839	37.43
756.02	39.97
756.2	41.94
756.381	42.83
756.561	42.16
756.741	43.03
756.922	42.6
757.102	41.68
757.283	45.4
757.463	46.67
757.643	47.67
757.823	48.48
758.004	48.98
758.184	48.63
758.364	45.46
758.545	46.97
758.725	45.12
758.905	41.72
759.085	41.27
759.265	38.06
759.446	38.19
759.626	36.75
759.806	37.79
759.986	34.02
760.166	32.92
760.346	34.67
760.526	32.73
760.706	33.72
760.886	35.8
761.066	35.89
761.246	34.31
761.426	32.75
761.606	33.13
761.786	33.34
761.966	35.86
762.146	38.35
762.326	38.45
762.506	38.8
762.686	40.74
762.866	42.13
763.046	42.13
763.225	44.47
763.405	43.14
763.585	42.39
763.765	41.13
763.945	40.46
764.124	38.41
764.304	39.03
764.484	41
764.664	40.45
764.843	40.9
765.023	42.64
765.203	42.05
765.382	40.63
765.562	42.78
765.741	43.32
765.921	43.11
766.101	42.74
766.28	42.29
766.46	40.93
766.639	38.98
766.819	36.5
766.998	34.74
767.178	32.81
767.357	38.65
767.537	36.08
767.716	35.76
767.896	36.25
768.075	39.15
768.254	38.61
768.434	35.87
768.613	38.54
768.792	37.21
768.972	38.93
769.151	38.02
769.33	36.79
769.51	36.06
769.689	35.83
769.868	29.29
770.047	25.51
770.226	24.61
770.406	25.61
770.585	29.55
770.764	34.63
770.943	34.21
771.122	38.45
771.301	38.99
771.48	42.41
771.66	40.78
771.839	46.11
772.018	49.63
772.197	54.74
772.376	55.75
772.555	51.33
772.734	51.32
772.913	53.91
773.092	53.25
773.271	51.59
773.449	54.98
773.628	55.52
773.807	55.34
773.986	57.1
774.165	54.97
774.344	51.12
774.523	53.54
774.701	50.62
774.88	44.58
775.059	42.4
775.238	45.6
775.417	39.46
775.595	39.84
775.774	41.47
775.953	36.93
776.131	36.11
776.31	36.45
776.489	34.41
776.667	32.65
776.846	35.5
777.025	39.74
777.203	36.01
777.382	37.83
777.56	38.62
777.739	35.67
777.917	40.99
778.096	41.19
778.274	42.65
778.453	41.21
778.631	38.42
778.81	37.38
778.988	35.39
779.166	38.41
779.345	38.78
779.523	38.39
779.702	40.78
779.88	33.54
780.058	33.95
780.237	37.65
780.415	40.96
780.593	42.65
780.771	41.78
780.95	41.9
781.128	40.94
781.306	36.13
781.484	38.91
781.662	36.39
781.841	40.9
782.019	34.43
782.197	32.23
782.375	31.63
782.553	37.33
782.731	36.48
782.909	39.04
783.087	34.42
783.265	37.22
783.443	35.24
783.621	36.68
783.799	38.38
783.977	47.79
784.155	46.9
784.333	45.72
784.511	46.23
784.689	49.57
784.867	50.54
785.045	55.08
785.223	55.56
785.4	51.53
785.578	49.66
785.756	49.03
785.934	49.17
786.112	49.38
786.289	44.11
786.467	43.61
786.645	43.46
786.823	42.8
787	39.41
787.178	38.22
787.356	41.68
787.533	43.77
787.711	41.39
787.889	39.68
788.066	38.88
788.244	42.14
788.421	42.24
788.599	43.56
788.776	41.44
788.954	46.1
789.131	47.57
789.309	44.33
789.486	38.41
789.664	36.16
789.841	31.75
790.019	32.9
790.196	31.54
790.373	26.29
790.551	25.97
790.728	21.01
790.906	15.41
791.083	15.63
791.26	15.93
791.437	23.3
791.615	27.74
791.792	35.28
791.969	36.61
792.146	36.93
792.324	39.47
792.501	39.29
792.678	44.56
792.855	49.39
793.032	51.28
793.209	51.69
793.387	51.85
793.564	50.79
793.741	43.25
793.918	38.75
794.095	41.77
794.272	50.26
794.449	50.85
794.626	45.9
794.803	43.75
794.98	46.07
795.157	49.78
795.334	49.96
795.511	49.78
795.688	52.37
795.864	56.76
796.041	57.92
796.218	51.79
796.395	57.11
796.572	59.37
796.749	57.73
796.925	56.55
797.102	53.97
797.279	59.7
797.456	58.82
797.632	61.5
797.809	55.24
797.986	54.3
798.162	55.71
798.339	52.94
798.516	50.47
798.692	49.44
798.869	51.81
799.046	56.05
799.222	46.56
799.399	47.54
799.575	43.91
799.752	46.57
799.928	44.87
800.105	41.81
800.281	41.7
800.458	44.43
800.634	46.04
800.811	44.83
800.987	43.29
801.163	46.39
801.34	47.05
801.516	48.12
801.692	53.57
801.869	49.72
802.045	53.57
802.221	55.62
802.398	55.07
802.574	57.24
802.75	57.37
802.926	54.91
803.103	53.93
803.279	51.09
803.455	46.88
803.631	45.06
803.807	45.59
803.983	38.45
804.16	33.47
804.336	36.75
804.512	30.96
804.688	33.59
804.864	32.99
805.04	33.39
805.216	34.32
805.392	37.53
805.568	35.54
805.744	35.21
805.92	39.7
806.096	35.12
806.272	33.38
806.448	36.95
806.623	29.19
806.799	32.09
806.975	24.6
807.151	14.5
807.327	3.25
807.503	10.27
807.678	20.19
807.854	27.55
808.03	40.51
808.206	37.51
808.381	37.88
808.557	48.17
808.733	40.17
808.908	41.24
809.084	40.98
809.26	45.18
809.435	41.41
809.611	39.38
809.787	31.79
809.962	28.4
810.138	32.18
810.313	28.97
810.489	25.16
810.664	32.45
810.84	33.08
811.015	34.09
811.191	33.04
811.366	35.14
811.542	36.44
811.717	42.09
811.892	40.64
812.068	35.37
812.243	42.07
812.419	31.21
812.594	23.4
812.769	28.97
812.944	28.74
813.12	31.6
813.295	34.26
813.47	33.55
813.645	30.25
813.821	39.1
813.996	38.19
814.171	43.71
814.346	55.26
814.521	59.9
814.697	55.83
814.872	60.87
815.047	56.94
815.222	52.55
815.397	52.56
815.572	50.35
815.747	47.94
815.922	52.43
816.097	47.76
816.272	40.75
816.447	43.5
816.622	40.98
816.797	45.82
816.972	44.38
817.147	43.14
817.322	40.75
817.496	41.59
817.671	37.41
817.846	35
818.021	36.19
818.196	33.84
818.371	31.45
818.545	33.01
818.72	30.4
818.895	31.32
819.069	32.43
819.244	35.34
819.419	33.53
819.594	33.59
819.768	34.89
819.943	35.46
820.117	38.38
820.292	38.6
820.467	41.18
820.641	40.44
820.816	38.4
820.99	37.49
821.165	38.67
821.339	39.71
821.514	40.46
821.688	39.8
821.863	39.22
822.037	37.71
822.212	37.51
822.386	36.66
822.56	36.03
822.735	36.57
822.909	37.23
823.084	36.15
823.258	36.04
823.432	35.62
823.606	36.45
823.781	36.37
823.955	38.49
824.129	38.19
824.303	36.67
824.478	36.18
824.652	37.73
824.826	38.79
825	39.32
825.174	40.69
825.348	40.08
825.523	40.23
825.697	39.97
825.871	40.35
826.045	40.76
826.219	43.49
826.393	45.31
826.567	43.05
826.741	41.26
826.915	39.67
827.089	39.59
827.263	41.61
827.437	40.36
827.611	39.81
827.784	38.64
827.958	37.92
828.132	37.37
828.306	36.71
828.48	37.76
828.654	39.1
828.827	44.79
829.001	43.1
829.175	39.74
829.349	40.97
829.522	39.21
829.696	42.55
829.87	43.29
830.044	43.54
830.217	42.36
830.391	43.97
830.565	40.85
830.738	38.98
830.912	36.59
831.085	37.23
831.259	30.86
831.432	41.23
831.606	40.32
831.779	43.32
831.953	41.03
832.126	40.9
832.3	41.21
832.473	43.77
832.647	35.02
832.82	37.96
832.994	39.01
833.167	46.36
833.34	42.17
833.514	38.01
833.687	36.05
833.86	36.88
834.034	39.26
834.207	36.48
834.38	36.7
834.553	44.32
834.727	46.03
834.9	48.48
835.073	46.85
835.246	48.27
835.419	48.17
835.593	47.11
835.766	49.29
835.939	50.71
836.112	53.17
836.285	48.63
836.458	43.19
836.631	38.6
836.804	28.07
836.977	17.8
837.15	14.58
837.323	18.78
837.496	31.15
837.669	24.56
837.842	18.02
838.015	28.12
838.188	35.28
838.361	33.73
838.533	26.1
838.706	42.82
838.879	57.51
839.052	62.41
839.225	56.01
839.398	49.2
839.57	51.93
839.743	48.3
839.916	40.4
840.088	46.53
840.261	47.2
840.434	55.94
840.607	54.92
840.779	56.3
840.952	49.08
841.124	55.15
841.297	48.33
841.47	48.41
841.642	49.13
841.815	43.69
841.987	30.85
842.16	38.39
842.332	26.54
842.505	28.91
842.677	16.31
842.85	29.84
843.022	28.72
843.194	29.65
843.367	42.1
843.539	45.61
843.712	59
843.884	63.95
844.056	57.25
844.229	72.14
844.401	70.96
844.573	76.58
844.745	63.49
844.918	58.56
845.09	70.07
845.262	53.61
845.434	45.95
845.606	37.58
845.779	49.98
845.951	65.13
846.123	51.29
846.295	39.7
846.467	29.05
846.639	23.92
846.811	16.56
846.983	-5.56
847.155	-150.42
847.327	-90.31
847.499	-102.33
847.671	-24.64
847.843	-53.16
848.015	-98.86
848.187	-53.71
848.359	-42.04
848.531	-31.95
848.703	27.2
848.875	-3.73
849.047	31.51
849.218	34.43
849.39	28.63
849.562	56.68
849.734	67.45
849.905	76.22
850.077	69.69
850.249	65.82
850.421	84.49
850.592	81.35
850.764	107.86
850.936	91.62
851.107	89.69
851.279	89.91
851.451	65.54
851.622	65.84
851.794	61.98
851.965	77.08
852.137	91.59
852.308	80.79
852.48	72.42
852.651	61.96
852.823	58.17
852.994	47.15
853.166	39.89
853.337	38.86
853.509	39.45
853.68	36.47
853.851	27.31
854.023	4.9
854.194	-5.51
854.365	-28.16
854.537	-48.37
854.708	-5.82
854.879	19.12
855.05	25.97
855.222	27.77
855.393	13.17
855.564	4.35
855.735	-0.4
855.906	25.72
856.078	19.82
856.249	55.71
856.42	52.44
856.591	32
856.762	40.61
856.933	44.2
857.104	33.32
857.275	31.85
857.446	41.53
857.617	49.98
857.788	51.35
857.959	52.44
858.13	28.36
858.301	44.04
858.472	56.64
858.643	73.58
858.814	63.25
858.985	67.48
859.155	69.31
859.326	53.8
859.497	38.88
859.668	29.69
859.839	41.71
860.009	58.02
860.18	39.59
860.351	33.08
860.522	30.79
860.692	26.77
860.863	28.64
861.034	24.77
861.204	18.49
861.375	10.78
861.546	-30.34
861.716	-16.18
861.887	-1.7
862.057	-9.71
862.228	-7.76
862.398	-36.77
862.569	-162.39
862.739	-150.46
862.91	-73.03
863.08	-35.21
863.251	-22.48
863.421	-1.02
863.592	2.35
863.762	-1.33
863.932	-17.47
864.103	-39.85
864.273	-71.24
864.443	-7.67
864.614	-7.49
864.784	-1.72
864.954	7.18
865.125	19.85
865.295	26.01
865.465	18.64
865.635	8.22
865.805	-24.4
865.976	-4.75
866.146	-12.27
866.316	-1.94
866.486	452.53
866.656	20.6
866.826	4.67
866.996	53.72
867.166	6.52
867.336	1.44
867.506	-68.81
867.676	546.96
867.846	115.09
868.016	101.22
868.186	53.64
868.356	44.55
868.526	52.67
868.696	47
868.866	47.62
869.036	29.79
869.206	31.62
869.376	21.66
869.545	25.16
869.715	22.26
869.885	23.14
870.055	30.27
870.224	6.66
870.394	-3.28
870.564	16.79
870.734	25.67
870.903	57.13
871.073	85.82
871.243	99.51
871.412	128.47
871.582	116.64
871.751	122.79
871.921	111.63
872.091	138.23
872.26	155.45
872.43	120.38
872.599	113.76
872.769	97.92
872.938	54.32
873.108	43.86
873.277	62.9
873.446	47.42
873.616	19.03
873.785	-16.33
873.955	-20.93
874.124	-12.75
874.293	-13.3
874.463	-36.82
874.632	-15.11
874.801	-29.33
874.971	-27.36
875.14	-63.94
875.309	-24.26
875.478	19.21
875.647	-9.45
875.817	39.83
875.986	32.22
876.155	44.09
876.324	113.36
876.493	115.36
876.662	141.33
876.831	179.1
877	182.61
877.17	600.6
877.339	486.59
877.508	511.08
877.677	-1938.93
877.846	164.2
878.015	114.2
878.184	65.17
878.352	70.69
878.521	73.94
878.69	67.38
878.859	76.93
879.028	75.77
879.197	88.02
879.366	84.51
879.534	77.16
879.703	81.96
879.872	75.52
880.041	70.21
880.21	61.61
880.378	55.2
880.547	51.83
880.716	38.49
880.884	40.04
881.053	35.2
881.222	37.36
881.39	38.01
881.559	37.72
881.727	36.03
881.896	37.22
882.065	36.09
882.233	35.41
882.402	34.44
882.57	35.18
882.739	35.21
882.907	31.59
883.076	34.37
883.244	32.34
883.412	27.32
883.581	26.85
883.749	26.9
883.918	26.05
884.086	23.01
884.254	20.68
884.423	20.38
884.591	16.01
884.759	21.02
884.927	8.84
885.096	11.75
885.264	17.44
885.432	22.65
885.6	25.2
885.769	35.48
885.937	35.52
886.105	39.62
886.273	43.85
886.441	34.71
886.609	35.64
886.777	44.39
886.945	55.3
887.113	38.64
887.281	42.63
887.449	37.42
887.617	36.03
887.785	52.95
887.953	55.09
888.121	65.58
888.289	73.03
888.457	61
888.625	52.29
888.793	52.08
888.961	85.99
889.129	89.8
889.296	60.41
889.464	61.78
889.632	32.51
889.8	9.82
889.967	12.67
890.135	0.09
